AF3,AF4,F3,F4,F7,F8,FC5,FC6,O1,O2,P7,P8,T7,T8,time
-0.0003658823232891089,-0.00035000450875964406,-9.181127111313827e-05,0.00046120066635397904,-0.0008578304496495773,0.0010493756475321724,-0.0005348500099254042,-0.0004884619584290927,0.001072729124849257,-0.0004917019700819154,0.0006901950744558744,0.0002767313647921569,0.0001377550865973605,-0.00050718186779764,0.0
-0.12224548223123527,2.2213713889003373,-2.537964644567104,0.0924816792379052,-1.8449684202952608,-0.6627436764142307,2.9306429113223023,2.1520914582783592,0.5310169783731897,-1.5321125626693708,-0.6454143338093115,0.703424690994109,0.7280604719472611,-2.0157840936996894,0.0078125
-0.272852573626429,2.2952022600236424,-2.0498046319686765,-0.13112721045589992,-1.6260515963154822,-0.765155876322116,2.4189926652677793,2.3080704718597045,0.6276469537740065,-2.3286265328547784,-0.6494753479528842,0.8395512921942739,0.7254736335515021,-1.4001439038592438,0.015625
0.4019847888031359,-0.2983315436167626,-1.4950379368990663,0.6178379377601644,-0.9718235193972906,-0.6203743756756965,1.5550381014916501,1.5993421358887945,0.5291891304521658,-2.3959100131398934,-0.4038395592821906,0.3382052902543294,0.1133482708122049,1.019995150271083,0.0234375
1.7315056073628952,-2.661676814444146,-3.7925789078981063,2.369418368090158,-1.9199421196470443,-0.5881975193990796,3.7391496449448463,1.3034525490872868,0.5041697870639194,-1.4153203179182021,-0.4913363798403139,-0.3060624004539744,-0.2548939938405363,1.7784539676025013,0.03125
1.8753166447728893,-1.63397847193966,-5.314156328402339,2.607888496327935,-2.822218988717712,-0.4271489508616341,5.4501981545419484,0.678484146757483,0.3645984364451308,0.36688982610943877,-0.6202390276349258,-0.4678487617133622,0.03410538500429422,-0.09120921970682858,0.0390625
0.31146306081698716,1.1861854555023064,-2.319799766226038,0.46926561164585656,-1.4489121975796104,-0.1039222316496701,2.566411223573132,-0.26243030189251504,0.10267369825076779,0.8288196211613319,-0.3352230276038471,-0.027473407349294997,0.40360245738492606,-1.3739458708081276,0.046875
-0.9310955288114601,1.9771330465823165,1.4962609774610522,-1.2810332147157826,0.5573657461645901,0.010979363038729232,-1.386757632809904,-0.3875381039181678,0.01611009778465759,-0.5041559304268388,0.04253099781768829,0.40053576066206004,0.3216744306213269,-0.33721343910226115,0.0546875
-0.6648511375526499,0.8764735428777786,1.7007488950854561,-0.9546517295931214,0.8325609838735107,0.09281498429409481,-1.7133977771504547,-0.4782212211536748,-0.05646918827549128,-0.3623920850129821,0.15593583778836098,0.19803444755046806,0.06502259247240375,0.3101716240986377,0.0625
-0.40009138616974943,0.4322188042190245,1.422542659610302,-0.635274802029738,0.8942771220211047,0.5781977976682207,-1.472165544993067,-1.7296709519753626,-0.47649412410602165,2.1807060556033453,0.3682111284459077,-0.3150594759918992,-0.07799846575283623,-0.7632802092352913,0.0703125
-1.1429448474184372,0.4610740728813477,4.146370072333804,-1.6747741099364835,2.498820262742396,0.9520530394642183,-4.348874245933726,-2.1570074933485017,-0.812120547212459,2.7033696752624667,0.8011489961090129,-0.2926203009866326,-0.283742500035556,-0.8509850566449887,0.078125
-1.4098684431319022,-0.2092253562320175,5.23028655202713,-1.9301199348603681,3.0439706685587304,0.4839925259403797,-5.540258264633184,0.05560633724169409,-0.45308561693841987,-0.18244417740690178,0.7439607709891904,0.23720428027389875,-0.4154364356605574,0.34044436871455735,0.0859375
-0.22850224814055278,-0.5334790184250326,0.7328493917064373,-0.1487841866721352,0.44971343471305053,-0.16330892547476245,-0.8027470824115116,1.8643054261253458,0.07263822198037583,-1.0427502426339468,0.043889092324238925,0.30543404909375127,-0.11489663142246687,-0.43186818010140926,0.09375
0.9398745425877719,-0.3033702723437093,-3.2833844161776886,1.378623407721664,-1.7143542999901722,0.05220641150144161,3.444387499997895,0.03153517671204261,-0.07075468982711693,2.035071013399865,-0.27275809253844185,-0.4032717038568755,0.1356424571968192,-1.958023591756486,0.1015625
0.9743031351613296,-1.6351075957012422,-1.0962779153730944,1.106270980741429,-0.25466473800347844,0.5338632083426571,0.9649354717015274,-2.5430981182825088,-0.4004855651968468,2.804107911475091,0.20133079371560203,-0.9555954570759696,-0.36962047626693517,0.6794924522024924,0.109375
0.7471922242142528,-3.836719749462062,2.027734016868709,0.6515404277355946,1.5537442451024843,0.08786789341393322,-2.5564214208597296,-1.427099231027038,0.010430645177162022,-1.5455015071741929,0.4131556868057608,-0.5932620436328498,-0.9734080237268814,5.4440282421849675,0.1171875
0.6697742179641558,-2.710464649198094,0.2167400461418331,0.8216297526874508,0.1761448274577067,-0.8061777407937875,-0.4950240619011866,1.8122172518006718,0.7203223959278566,-4.728242781777034,-0.20354566571133012,0.2736640846762832,-0.4856048970624893,4.74127031490647,0.125
-0.09521245312777014,1.7168838887635278,-2.227062146978611,0.133220686902722,-1.6658760621999018,-0.8373802442804231,2.554170548925338,2.7580149796992046,0.6770966819999574,-2.639429324463249,-0.665544232351519,0.8269819399285288,0.6271451798008854,-1.1609339204072404,0.1328125
-1.0106235818482654,3.478017142434183,-0.5361562816923838,-1.0930070912225898,-0.7197515333778758,-0.11192240467134291,0.9345584719441127,1.2516092226280588,0.037178688444162666,0.4890391832100119,-0.26554594300130213,0.684907373656443,0.804263126564989,-3.9481784313223933,0.140625
-0.42238977247669063,0.17784834784780604,1.241960104864953,-0.5327269716116785,0.7783450825512807,0.33105820055557894,-1.2979314581511723,-0.14959512750389353,-0.31441665260690843,1.1621863143273643,0.26699750547067,-0.046926195640580266,-0.07372744778840021,-1.1333436209469092,0.1484375
0.8930937581641474,-2.406770279158467,-0.4540629983907962,1.080339762932141,0.12892006713999946,0.27696568056039766,0.21917019193860401,-0.9823387370072949,-0.2214626238068925,1.190604606379795,0.19977737691172764,-0.6796504968449464,-0.5261685886737804,1.2715021546540746,0.15625
0.38989999542888265,0.8142778520712239,-1.7751904902285196,0.43396227707705276,-1.0879508088513485,0.04127469915557916,1.9399095934995452,-1.42176677851384,0.022601108599348628,1.0538965305966348,-0.21027155182176008,-0.24692203996542453,0.2589575248743939,-0.21556458671185172,0.1640625
-1.5366601993611395,6.077075004544819,-0.568384521855044,-1.980857952036404,-1.2210668806310587,-0.39868884427575996,1.2167441916886428,-0.2264750023868952,0.39621401920525506,-0.944621022569752,-0.559404281418683,1.0586802144699345,1.3660957971489263,-2.6782927193373074,0.171875
-1.790357870972495,6.216223065720114,-0.5018245447184221,-2.1327954204825166,-1.2825697092251274,-0.7658788233825089,1.1864099638304166,1.9711312668241403,0.6480278743066121,-2.581297839989908,-0.7071986307696942,1.5506240971373648,1.4600922578162592,-3.2699975384537407,0.1796875
0.07744097899836676,0.9324691969051595,-1.9827620449020071,0.35751503096636317,-1.276963829733444,-0.3774577112352376,2.215254302017186,2.003281509949973,0.2599230755002418,-0.4850255881776514,-0.3915112241221373,0.3881503142404979,0.38905364487705163,-2.1077670621946942,0.1875
1.2971308177408494,-3.673381735381667,-0.9936520157273315,1.7351735326308315,0.09411728671759835,0.4789358427514412,0.6762583845091551,-0.3663807564381204,-0.4559875291334332,2.522292492014136,0.31819918836984457,-0.9654816682440519,-0.7724849537884886,0.10743290959823569,0.1953125
0.9465886541972208,-4.332603323700275,1.5290037951424011,1.04370358582236,1.5670405392748454,0.6516979344456073,-2.073213402479261,-1.6347066551933964,-0.5447972016330561,1.7504679469607658,0.6588341866991367,-1.0560322898056453,-1.1057528267264898,2.601357605790484,0.203125
0.9262179098280899,-3.795181249675215,1.0606289026472437,0.9954862436130861,1.0544333214328565,0.11828162056803421,-1.5223562846101653,-0.9418922373924542,-0.05134539804127026,-0.748750308870965,0.339486664094939,-0.6442906583914286,-0.9002412560039141,4.11223274662084,0.2109375
1.5945921204820794,-4.44079552830512,-0.7199623784915592,1.915500937211711,0.15596607045726973,0.07621543429425062,0.29054105057990054,-0.963693521616017,-0.0175819560523607,-0.12262197459462097,0.18194104603963168,-0.9018005271861665,-0.9233421003328499,3.8801465347787594,0.21875
1.0787652941374244,-4.32024037416014,0.9633613132619256,1.260645862049541,1.2938674547377966,0.7303733386434532,-1.476832511224358,-1.6470044224630342,-0.6262807003958016,2.5023543442782783,0.6419813412365731,-1.1564961364855313,-1.0756282528755656,1.8352192917543608,0.2265625
-0.7062943953904248,-1.4722191421564848,3.8962966600564175,-0.9315520799974462,2.642121877232927,0.9231105899013216,-4.263921905852037,-0.45714834946380173,-0.8704422498397022,2.6901208001398214,0.8853333763339825,-0.39335084092157363,-0.6515823526320699,-1.2912325216962757,0.234375
-1.663205638072251,2.6483298591120104,2.7158153676855767,-2.031018104604103,1.2698938295113347,0.23772512966054266,-2.5814257863199317,1.0667876259157478,-0.28132438430531803,0.49496696338021234,0.25303037229443687,0.6722908271022191,0.3890909165954904,-3.1946961093592416,0.2421875
-1.2388352869109054,5.553491884759088,-0.9467216183768085,-1.633704100616228,-1.3623737988687061,-0.3747327588542292,1.5546513605296823,-0.6404356505018982,0.3930326857281717,-0.774157313869417,-0.5626819584922816,0.8788392953625492,1.2692264837374292,-2.117484011786715,0.25
-0.7610062144175891,5.6136908369628085,-1.7931769011083012,-1.2584759392596045,-1.8940446963191535,-0.3648653219468223,2.4240707804176784,-2.9496201131660387,0.4998460932509271,-0.6993972869495672,-0.6729745795217433,0.5230923118364255,1.2988836524885454,0.03474836575164433,0.2578125
-0.5196484888344515,2.106562470852945,-0.10649518185253055,-0.7276836267075374,-0.46260253676134355,-0.3542645828611342,0.3238703092669358,-0.06334975696473817,0.35473414166226486,-1.5870726318985473,-0.28878793371658773,0.49850317030434915,0.48911609023995867,0.3372883581810306,0.265625
0.08480435864232246,-2.6151992526051733,0.38502834267210007,0.592981115590108,0.3990739318279096,-0.773537267812485,-0.5993800871339526,6.072414309205655,0.4634865394321264,-3.7924049881591824,-0.11960793158174618,0.7920369590777273,-0.4147606467527101,-0.47664775373246077,0.2734375
0.4641815855995801,-3.501238144510127,-0.4428811017458446,1.1882151557647203,-0.008905153917290262,-1.0393015392208085,0.19836348268984758,7.310707167400414,0.6607934428589243,-4.731455976114819,-0.26449667461615467,0.8678113116830531,-0.5077664359985349,-0.19517278229787352,0.28125
-0.01329836949581761,0.21036335927193034,-0.6020110901498539,0.08920243413194075,-0.5215264239792465,-0.5484848813898752,0.6766957962282283,1.759767129178263,0.453509363644477,-2.362344116914463,-0.30805523897110293,0.48439639082248576,0.16220198774226055,0.5202961442418303,0.2890625
-0.3035779557087003,2.880909912939831,-0.5103594763061399,-0.714735448254897,-0.6123212417870743,0.3462239387558652,0.7846601681815842,-3.965959877114512,-0.1447982260308399,1.9161154702038001,-0.08273498590629223,-0.2758461766274931,0.5529254594693314,0.12968757327858196,0.296875
0.34908281678963016,1.538606988243266,-1.3626904534907867,0.13832578084193523,-0.761028104681705,0.775854778180978,1.5371937403895408,-4.907195700925591,-0.5269976038420952,4.3707767892119715,0.09817886694442181,-0.9152049825085871,0.26387507304005975,-0.6005246387826612,0.3046875
0.8187508689724212,0.15767200365880643,-2.3436203685996277,0.940039284059567,-1.1985824657915196,0.41676552390781946,2.45666257665117,-2.7248295780830802,-0.2854724638317351,3.094583524228714,-0.06824910959876009,-0.766332254750663,0.0980389515290035,-0.596044788674261,0.3125
0.4484267482447133,0.8102504240417924,-2.1963869889112506,0.5700700374208859,-1.372383609436319,-0.1648339409464871,2.3913066755153296,-0.6606944874582599,0.18695819956906917,0.2811944705063135,-0.3391371632171497,-0.08584806464819275,0.31566158598032545,-0.18127505317819664,0.3203125
0.40212537414189375,-0.6345504161946586,-0.8722291539654401,0.5478217167759569,-0.46642701642728757,-0.20918477669032365,0.8594291302136169,0.4352143125101281,0.18430962501441356,-0.7153064063968841,-0.14512909130237692,-0.016563827636654326,-0.05347288026211742,0.688273253558754,0.328125
1.0563010249914093,-5.192186464344391,1.1826676593975163,1.4056077579726711,1.433325295756171,0.33366363833868457,-1.7699087135779252,0.8177276953156709,-0.35669829760830424,0.5029234511375137,0.5501698385826145,-0.7547895383567205,-1.1996021888409265,1.9911007478717697,0.3359375
0.9140956071041946,-6.48246319738089,3.008084703202314,1.190999135922408,2.754097385143982,0.795737823666176,-3.8318137880927576,0.4535785863292726,-0.7855250731782379,1.7958592577314607,1.007468953100518,-1.0643423798599927,-1.63869581506781,1.8793166443666611,0.34375
-0.4716444700439025,-1.324349790486062,3.0629772283220142,-0.6669127576844567,2.07291531621997,0.6808046592443928,-3.37341663443593,-0.5889793076138736,-0.6260758138459344,1.7842377431885805,0.6796761826113539,-0.33628977931326776,-0.5472778368662962,-0.34908834097023617,0.3515625
-1.3257908265488911,3.8374412007585454,1.292204827121369,-1.836432320453529,0.2574814914683516,0.19233508533541016,-0.9882893384964032,-1.4989348181108464,-0.11129816498260836,0.710077593066935,-0.00031516877575415807,0.42990559646157733,0.6967499172548851,-1.6572684259994372,0.359375
-0.594117598385557,2.7396622180466896,-0.31318716068668556,-0.8548535278073414,-0.621137604055857,-0.22616705253985075,0.5993911132577788,-0.7466467095227657,0.2602862762161399,-0.7907190420612896,-0.28862953754211657,0.4219426400094082,0.6142201430313865,-0.20321476501555596,0.3671875
0.37785601262991164,-1.1682036695234053,-0.7228349011818096,0.6289603782838751,-0.36451230743107876,-0.4369065774229992,0.6643032972256138,1.9684476822545105,0.3337123837570258,-1.8698247060694495,-0.19288305947407158,0.22644549304228392,-0.13222075514596643,0.6837643934510379,0.375
0.053874759877244625,-0.5880326071219647,-0.874417340127621,0.4257080173670334,-0.48717191029730683,-0.49165692510228803,0.9093546730928936,3.6857415583082007,0.29530740264720173,-1.6547652813960074,-0.24017360243377878,0.5326277790318352,0.03228451408846595,-1.599521132435981,0.3828125
-1.1686120062660965,4.350127140206743,-0.762452931926013,-1.3270392950584633,-1.0529400112219165,-0.36045272356401564,1.2703116370808878,1.3243701977890523,0.2783246895725735,-0.6091735318986358,-0.4503643187981471,0.9396755012985389,1.0300947422511306,-3.458343735405698,0.390625
-1.7434441394968276,6.364419351007723,0.8114397853136535,-2.529618743526798,-0.4509631036355778,-0.04991805349365608,-0.23933092594600647,-2.7728479874244925,0.18931972707508327,-0.1949152262499127,-0.30873267057053067,0.7465459944005214,1.2698506712817343,-1.086482701586722,0.3984375
-0.8981927767185698,1.7853477541781584,2.669817089106444,-1.573034560888463,1.213473028952973,0.21777197216392097,-2.6772743422394942,-3.092730753971572,-0.0398494073590956,-0.5477420140218364,0.22705185635545125,0.05424198390172206,0.14726348946473974,2.5195997015517744,0.40625
0.6355440962525186,-4.063492204105395,1.6876921980097122,0.8025339167970653,1.48753131925339,0.13681730558563496,-2.1895014082207416,0.7508372546246095,-0.15491460892837922,-0.695809122982911,0.4448368773478927,-0.431471346423308,-0.9727019428544246,2.568660445748317,0.4140625
1.5148288605363802,-4.589225868234805,-1.9716414489368275,2.3038784093769684,-0.5493118678199429,-0.38853036774994004,1.6542802066847142,3.551473100025995,0.20126859588209983,-1.174097230954632,-0.09257343958799219,-0.2584257137750848,-0.7641577573841486,0.5671159218180206,0.421875
1.2990756437092168,-1.255955725126811,-4.09698858137938,1.9237173685024689,-2.377551138591279,-0.9995125078872047,4.221354976936739,2.7638284013233987,0.8335134950263241,-3.023811285474139,-0.7700206613241072,0.2773606593624425,0.12557056228700142,1.0788078728038017,0.4296875
0.7282454593274036,-0.21986840732757143,-2.302085439762249,0.9105402066516198,-1.5805573707156866,-0.9724823450282681,2.406080641698292,0.9896790338499628,0.9087422205879514,-4.028045495484642,-0.662345925860231,0.39112771659369533,0.20531433750244957,3.2209801706353174,0.4375
0.4459668667732811,-2.161336860587491,0.7756485593723373,0.49207432498333925,0.7076820723079992,0.0843474206357226,-1.0462388331606405,-0.2622178315031303,-0.05947143344769494,-0.37379125681732805,0.22192168725518144,-0.3258090828999414,-0.5207584283883245,2.0179567203650755,0.4453125
0.2925809067176772,-2.1553746741098005,1.4325400366443037,0.3430734007154733,1.5580072557695748,1.4835232431788488,-1.7507287556624276,-2.5752941288828533,-1.333173349908322,6.6347483208800435,0.9256878214297983,-1.3080061839214425,-0.7302346552020273,-2.8206265097772203,0.453125
0.06433929155167012,1.238150286972783,-0.534109928131902,-0.035486607633991724,0.15462461971700558,1.8679594231715138,0.6423221940435647,-5.279039442329941,-1.5941744291049396,9.894364761133689,0.7126750804264118,-1.5258401503671815,0.03733772586046336,-5.648923912890443,0.4609375
-0.1675046673195691,3.9350975654913296,-2.195228169848492,-0.42001207188686585,-1.503352342458035,0.7539501556778775,2.6661999071618965,-4.620106985028281,-0.5299254364586884,5.154689580367448,-0.11060708463014457,-0.5895366577212041,0.8327925210444638,-3.213800381880788,0.46875
-0.664379871929384,3.7244829686357774,-1.0827515140575883,-0.946810775003724,-1.3431781668861926,-0.7356194519737108,1.5119189016706587,-0.10384530644081962,0.7294998670274593,-2.9256865471716624,-0.6488273336823487,0.8515772611005115,0.930750998722049,0.6986796339895579,0.4765625
-1.5604245653942383,2.821203178351613,1.9562725315638028,-1.9125967208498622,0.3480491440093278,-1.1605629246275608,-1.743044641812958,3.5977206276230627,0.9796779555938763,-6.380369717606402,-0.46666176639595763,1.6960902112766902,0.6463776355398639,1.1795991821142358,0.484375
-1.7798428661907648,1.9175675059950952,3.5287855653675733,-2.155234440410555,1.590313715406087,-0.42288686991702695,-3.4909010953855426,3.074250500380668,0.2806547151024425,-3.367367055768819,0.07731133581587385,1.2472771904502136,0.27703264613602885,-0.7706299666796745,0.4921875
-0.23285129064853177,-1.3852194878307462,1.9690732890055302,-0.2571299459891864,1.40438027022326,0.3967660817623087,-2.206637795543459,0.42212507491096063,-0.4018375407814996,0.9891343455651229,0.45521973075028727,-0.17995861419957954,-0.44913467160371534,-0.5147470133005049,0.5
1.8792278625838479,-6.200530669704465,-0.25881443959617256,2.378773424654661,0.804088582178529,0.5113556434657007,-0.3641446411219856,-0.6898884457745741,-0.4611103555844836,1.816370728266143,0.5285514594391317,-1.3306943388317476,-1.3649299040786078,2.758309843227539,0.5078125
2.0690702576371267,-6.949185134300529,-0.222480252870406,2.597369680341474,0.771072106346434,0.09593502574494622,-0.47823310000719244,0.11660219475059892,-0.08659182333633549,-0.4939899696338992,0.38181302152037755,-1.1142815877791408,-1.474545561337293,4.7860367041909635,0.515625
0.11151798767385836,-1.5271210442071357,1.1147263442295994,0.08678680642841247,0.6883449637644855,-0.30313059473047665,-1.3302023321895227,0.8294836046441695,0.27112311529585176,-2.4028906165161716,0.05066973106313998,0.14897431166031103,-0.3526141121784707,2.6075648508526306,0.5234375
-1.5582652144608875,4.48384097846773,0.9352250136800494,-2.0132485246860865,-0.20094277014004833,-0.4267602822499272,-0.5250320843955278,0.6008476540987735,0.3927911751203377,-2.029078977441564,-0.3361456154120959,1.0831170867925912,0.9483651181283967,-1.3585991581061638,0.53125
-1.2936728987300137,5.1743709684245855,-0.8454448804578399,-1.5708443116384243,-1.228671515566047,-0.3834215877040623,1.4277955562289888,0.54165211939696,0.3405283797963014,-0.7095502147795669,-0.5218564203548219,0.9761048247977459,1.20106886435031,-3.106292799711138,0.5390625
-0.026734784391832543,1.516939521250173,-2.071349061281684,0.19283122123820395,-1.406036045095921,-0.3802777475012981,2.3601003609176,1.6335890425053308,0.28048458931961173,-0.4241293650848704,-0.43611036942867143,0.4254440520066093,0.5136192659818374,-2.175373144261152,0.546875
0.6430761280549652,-1.4761353835914888,-1.7772148116225543,1.1263625243074342,-0.8520501123116456,-0.39436527032303526,1.756726952568777,2.7684323673019415,0.24295331182215119,-0.9449291629889893,-0.24648775087800956,0.14420348771448152,-0.1242132158517117,-0.8652056643555449,0.5546875
0.3846133335113438,-1.1672319727574902,-0.704449304796455,0.6476288741703187,-0.25067350840917696,-0.13905584092171389,0.6419103831362377,1.4160038306081,0.06461863413085935,-0.31675543103815956,-0.05513891182815112,-0.002209980430297205,-0.16992098229559763,-0.3486765820692692,0.5625
-0.03133763472129583,0.9184639897710153,0.034898809769363805,-0.24918866029279838,0.0030024468007417743,0.4536554998334417,0.025913474454037938,-2.7784229310576025,-0.3069252801821693,2.1200926814869696,0.1372045291335212,-0.4370311069982877,0.10829415448372763,0.003052283006868352,0.5703125
0.20297458719852052,1.4693201283616468,-0.36158956215003235,-0.19038125935107678,-0.20409096651610834,0.8721765519291609,0.4631621999490363,-5.869673242786766,-0.5657246605542773,4.159815586590477,0.2303605157430839,-0.9919029335524465,0.1632124521436278,0.6247504801085183,0.578125
0.9310635881561319,-0.7696667228707865,-1.3041073929666271,0.9161546734099056,-0.4982693903259953,0.5768523626582044,1.2513804811958125,-3.924452020725802,-0.3736155334098758,3.026963055363206,0.1387983684949726,-1.0323730578013308,-0.19768063259276114,1.2608200000794338,0.5859375
1.022093327388742,-2.99301823455,-0.8520539604265167,1.3804551803999232,-0.1233758769030022,-0.13746986463711894,0.6023521360286472,0.893008013134049,0.09403140059933256,-0.6395767190043928,0.017412714910772273,-0.35697399771770455,-0.5580050703620019,1.6502048638685773,0.59375
0.09474719295727974,-2.2237894167480214,1.1514910178639626,0.2687393312133839,0.8321929371365897,-0.35081129269619593,-1.4146915720786153,2.684610082722804,0.22293225783373732,-2.441800017363181,0.09156506873491072,0.2928852726039456,-0.4708991434099073,1.257959386220593,0.6015625
-0.6045213162648916,-0.1822262134070696,2.1896005772365683,-0.7824025989943383,1.3150936007611769,0.2551698826172725,-2.327661850040927,0.2982056388936437,-0.2556064611259821,0.25320408024603847,0.34570476400882605,0.08904989017935418,-0.19484053104602092,-0.4052462464744978,0.609375
-0.4224668563379792,0.2748659879020593,1.462126558022936,-0.5934894171611638,1.0425069678092485,0.8329944760672584,-1.530987855961101,-1.6398114043051792,-0.7365262856397533,3.5728833867924368,0.5043185615791825,-0.46485221908917945,-0.13736419186456508,-2.169254581083319,0.6171875
-0.5968253951403635,0.9525317941258203,1.1397121717888352,-0.7606328262528272,0.6459685456678346,0.39880987472433893,-1.1102895025817396,-0.4749377357261257,-0.36681834377595635,1.6641995512960774,0.24583173316465148,-0.01615771657346385,0.08662110697521067,-1.8114871299964743,0.625
-1.4937344236893482,4.014655609656871,1.1543498575026099,-1.9600335526456982,-0.16340863435680275,-0.8249172986932877,-0.8013743529287811,1.3430880248193036,0.754865084544382,-4.3065924882227735,-0.47280268802246395,1.34260926170787,0.8843282857141103,0.5272694594249068,0.6328125
-1.2607383282695868,5.65510449587295,-1.1708757429671022,-1.6810613001221593,-1.904859853890503,-1.5399387765300425,1.8215131782364162,1.5751404615673037,1.4401261112340789,-6.708195295910135,-1.1194128391736917,1.7791574288548118,1.4514911717495422,1.6655511387809898,0.640625
0.5689390204312731,1.780764321746579,-4.115158857971517,0.8840343096166063,-2.7583493438715174,-0.8738519558950744,4.542292835580331,1.2589574254935554,0.7810317022380691,-2.0940761248374113,-0.8872462438839782,0.4872037294239946,0.7395614686190597,-0.30581183036462634,0.6484375
1.504609745328899,-4.056602668700176,-2.274520636871658,2.3117659389393372,-0.47238498776136806,0.5139070415052418,2.0191604233559053,1.6156413884231269,-0.6022250190009367,3.741736251785035,0.2585319047695973,-0.9377044640165283,-0.7482440853633164,-2.865832745892534,0.65625
0.3817095916248868,-5.685733283184129,3.217435160095336,0.7833486785449707,2.9345414147505564,1.0760696200583266,-3.941455892896386,2.0708913845124886,-1.1519765326248355,3.7012183839840906,1.143139438670389,-0.8859340162769408,-1.4846116042606738,-2.1570278983823887,0.6640625
-0.6115460245364439,-2.8835549289509474,4.572764699116149,-0.7685019788071084,2.967590373457738,0.22952989137690238,-5.100275952662889,1.7953793058354013,-0.2885975824490008,-1.3513817677532618,0.7191433609440875,0.11252329658901876,-0.8937115895784684,1.4978608632758144,0.671875
-0.1047055584565273,0.41526081784344193,0.19178940559141625,-0.2617702655499705,-0.2385902333879518,-0.7507662833288757,-0.15943739426116632,0.5727454800707381,0.7231594627043134,-4.125687205497903,-0.35584623155735784,0.5673349362869395,0.1582648993850177,3.367375592620622,0.6796875
0.4411356141365654,1.486413538417409,-2.5018070144446525,0.46108753235789707,-1.703671174333491,-0.315866918351099,2.773484582063366,-1.3708638093429657,0.3725024119215104,-0.42812589155818437,-0.4854546520139344,-0.014260912476568967,0.48242749497887244,0.8059210209681466,0.6875
0.27626173495302425,-0.26110660769367433,-0.08837226189227752,0.2513522350702687,0.3168520681475598,1.0455534942889513,0.0322599062054231,-3.085659497084319,-0.8804851046491681,5.234041209209978,0.46571674008333885,-0.9924133989493865,-0.19785009209553853,-2.1135271058408462,0.6953125
0.6220092671018224,-2.8067508020805327,1.4713906190596746,0.5918669527105838,1.5693713073594504,1.3307857191696817,-1.8822645184760902,-3.5863081277738362,-1.124890437871891,5.452531194608245,0.8755035006962981,-1.4378635142179867,-0.8723966671872844,-0.20417839630256054,0.703125
1.418636139276401,-2.194511248025358,-1.6600352097531221,1.5220199318028342,-0.6967017927339461,0.058303268760439404,1.4853239923252053,-2.923355921476947,0.09240761634146663,0.283615317225355,-0.05744047146133924,-0.8784970910518807,-0.41386186768673683,3.960156905508616,0.7109375
0.9279965224033303,1.8111878116762399,-4.199104333823486,0.9819042450186269,-2.933770913195149,-0.9729319164151556,4.588438013047086,-1.5035233164988817,1.0250161549099113,-3.1417245991125426,-0.981246881167955,0.21136431317903348,0.7189401826816629,3.463025779997616,0.71875
-0.7790064558641681,4.051058396552043,-1.2734849684720837,-1.000218259060731,-1.427020466547139,-0.61888804657028,1.756427179048983,0.29922889778607303,0.5887513963824051,-2.02994401888972,-0.62179776317402,0.8646135707075868,1.0071844362765152,-0.8216327442558425,0.7265625
-1.579271468579066,2.117971077240629,3.0555269875827515,-1.9850468740572278,1.418725006224937,-0.027689042862568482,-2.9940918400798426,1.3229707327785045,-0.026007058178370086,-1.2144376196247149,0.18842323689877435,0.8035680749956393,0.2842076152856647,-1.3688940283850546,0.734375
-0.8418968694426779,0.20293720018317513,2.627877360413246,-1.1286161963246364,1.3207074751394372,-0.2617596999639107,-2.7417280047321015,1.1602508511423417,0.21849543223985907,-2.64286091759621,0.13068053309767322,0.5802473963959622,-0.07696037080385108,1.453047703413479,0.7421875
-0.13776135679538007,0.9665688077753614,-1.0671468109430513,-0.006696772041719595,-0.8359406723563234,-0.4866311513380673,1.2494421804159617,1.874089651692264,0.3815269728032108,-1.6098893939398662,-0.3596526056764473,0.5309464043919947,0.34833179660696284,-0.8411494056745261,0.75
-0.33337446692446754,1.3637821646859587,-2.1515236064671166,0.2161423646172131,-1.1723103429271569,0.07106777317439306,2.4724470045435085,4.086159283459425,-0.3009945207891015,2.6031802802546573,-0.18546585239704427,0.4345068628517622,0.47986145243514544,-7.577231637853197,0.7578125
-0.5448311622913952,-0.06801027086470246,0.04536415577473858,-0.09422353991625528,0.3685994163489783,0.5328366945112926,0.004482189259549316,3.836057932636078,-0.7333019120263627,3.6917527960236196,0.3160498460831606,0.15455826425272332,-0.010547984204952674,-7.497537336639496,0.765625
-0.2118565221515206,-0.10400807235848876,1.1506551540107437,-0.3779953734983043,0.6795897722917152,0.17801337093844088,-1.2356580493451037,-0.779719290379667,-0.12746415928863566,0.18756921774807309,0.19033174843694395,-0.08928045835215927,-0.12239132784521005,0.6605229444302033,0.7734375
-0.06037732930784817,1.9887998854717612,-0.010704993069883643,-0.5959416544017109,-0.4567635174939185,-0.1893758921412463,0.15713085319772002,-4.0968970976507615,0.40372730748962227,-1.5323445395590247,-0.24908612806167899,-0.07918263906954422,0.381418241190836,4.33900972089413,0.78125
-0.42239428488118314,2.104035835884925,-0.06529027824708968,-0.6857469752284285,-0.3233216525970855,0.051028938562904566,0.26435362318560435,-1.5871364945975823,0.029821941123100788,0.35489198811704636,-0.11067375857297568,0.0970570538161873,0.42397813043086346,-0.1318777648020687,0.7890625
-0.3697353254949119,-1.3248830146621517,1.9960258825504316,-0.33289060465288717,1.384398746918142,0.23723622249620857,-2.221900461930522,1.596294267757302,-0.3046878796519487,0.31836977760218654,0.39408803008652593,0.06027106513646183,-0.405211204983703,-1.0324921275556809,0.796875
0.605228811304997,-4.60112587050342,2.9974897514462566,0.5227220593450675,2.1914445154919178,0.06451819778407968,-3.6488821291525477,-0.4575837575596763,-0.009996407490656513,-2.1492214726326275,0.5464640780214989,-0.482687468229386,-1.1801959037210796,5.596547846973247,0.8046875
1.4763167293774642,-4.981783683247854,1.439916178644393,1.3670050530975573,1.384004214411277,0.2809247302722507,-2.082632701595567,-3.7237433148337367,-0.06260515599760846,-0.7930207751092176,0.47696851166711784,-1.2054205653647008,-1.2345277451513677,7.659647359485847,0.8125
1.3373212618196446,-3.776789270272643,-0.5538056486973063,1.6644545009511138,0.44767717332325296,0.8518312187330136,0.18222635506665658,-1.990915730032461,-0.7401947634727657,4.032310480104963,0.522677511526039,-1.3358676504859748,-0.8825637042506298,0.2485039545034583,0.8203125
0.8741319795109495,-2.601435493449746,-1.6349845190507115,1.5305224197279192,-0.2863925440511152,0.538766104130259,1.4945389271959904,1.869400216924785,-0.6398672439227427,3.828581018189849,0.2610284379932407,-0.636123398978546,-0.47632948847963,-4.1157840517449475,0.828125
0.9179123059432513,-1.1766588134433353,-2.5185864996074203,1.316305554676628,-1.473395607425426,-0.7827007699278001,2.5556923585764886,1.951179216340495,0.6697739238517221,-2.821292353419393,-0.530121581337724,0.23247213270379474,0.011136450740003275,1.6498413138054695,0.8359375
0.8483172444338885,0.7713624569755742,-3.0036100849308323,0.8464363292866569,-2.3070297468558096,-1.4342063909397689,3.228948034320501,-0.20748501582634665,1.428274536237444,-6.293543750375257,-1.0182065355672516,0.5838085843144009,0.48695237773226824,6.069277711086297,0.84375
-0.17880201104535495,2.6904359017414037,-1.987727116926733,-0.22465799411680673,-1.6324482497228747,-0.5709294565208923,2.370368993912532,0.12850635300047722,0.5481860546582433,-1.6307537310230449,-0.599764253308766,0.5389964045077255,0.7546453019631921,-0.205688881459811,0.8515625
-1.5854753057283266,4.153473616769553,0.1368724069517617,-1.6058396273812512,-0.2003650200959646,0.4152137488996575,0.31769212797756075,2.138626456998681,-0.535126427392311,3.363761398814834,0.029501437459429115,0.6677864837072454,0.8694512478504588,-8.163580110222224,0.859375
-2.154009823153365,4.737223476137395,1.7955554446461384,-2.458455758133866,0.5554058743821623,0.25254255729470915,-1.3794072429615738,2.049311932952795,-0.3583281018187053,1.6273303497225966,0.07870000224383969,1.0039130181999565,0.9049488304889325,-6.653237322698863,0.8671875
-1.6001694596530551,4.12323874930281,1.7494864522104867,-2.1671777634194793,0.3209344230923698,-0.27646599450685666,-1.4334356552153567,-0.18870793430202354,0.2906463287995259,-1.8503898880080965,-0.17871305263099221,0.9341704308694088,0.7941344403605971,-0.5194320559274311,0.875
-0.6592037023409298,3.2207658286597685,-0.1968774311161186,-1.0357411928482714,-0.586111195347219,-0.06449641732398165,0.509062576089488,-1.8892487517787162,0.15822864611771345,-0.08988403982176385,-0.23940174987274848,0.2814180008636235,0.6766572123062963,-0.09118171524395982,0.8828125
-0.19879621835076386,3.1145833003913372,-2.040443801513177,-0.2719994986728499,-1.4061314533870313,0.3456537543609457,2.4499206861105485,-2.042704415049561,-0.25539367989581996,3.1613726607404846,-0.21492892683107143,-0.16675484484166742,0.7267861617696522,-3.2084315759295197,0.890625
-0.32411771960420616,2.4310896962498307,-0.7971414340716202,-0.5221382320221502,-0.7470326531694584,0.08193329809668853,1.0691946415433407,-1.6466703572000572,-0.0031475588619681747,0.9710540623594823,-0.18282391144199217,0.048398702980422904,0.5352660810368328,-0.918703586710083,0.8984375
-0.14436151707297942,-1.265655304908216,2.694297448736493,-0.5484558793219576,1.4775776706465686,-0.21723779277824232,-2.9974522106004495,-1.290701069382034,0.30712473138122987,-3.1602448383203416,0.2003215975490425,0.049197179570630196,-0.4355183422835724,5.329392638317044,0.90625
0.8981159254430687,-6.662286591611807,3.865052793221132,0.9345737580879968,3.0376877292251274,0.35920731969904385,-4.765017399292785,-0.1915564167861363,-0.30886319230234505,-1.2703515484331007,0.8796476391264643,-0.8396011572259167,-1.6976333091030487,5.761324778698773,0.9140625
1.7470632525286476,-8.95904222847992,1.6904379413572748,2.5563965220274363,2.5143313276443386,1.0948639692271394,-2.661609560522796,2.03040214640405,-1.170766356655121,4.078283555261338,1.1727408219325988,-1.5521848454829357,-2.0893859261120116,-0.44876868242609497,0.921875
1.2183076248335127,-6.203374300049548,0.23221724727877577,2.0749197144643796,1.306752111975062,0.7850101811087998,-0.8227713465739325,3.363173717716518,-0.9459200949118132,3.868656085534886,0.7615799105620251,-0.9523791497775219,-1.3612785318916014,-3.3192329508142633,0.9296875
0.15080827383749312,-1.7641254409079739,0.7763718634975196,0.28676919110628646,0.6094359691493451,-0.18628798863478074,-0.9802200807962917,1.650913820015358,0.110079129677458,-1.4439342180460129,0.09689607619666524,0.11100277164344155,-0.3810329358713949,0.9687376815129061,0.9375
0.08987053796086725,0.8371882520643249,-0.2524220586793759,-0.1814333222454184,-0.5393903875059038,-0.6403937189457442,0.32309732036938027,-1.289791213437535,0.7074583229781953,-3.556883864309215,-0.39182614760501716,0.3043696231530494,0.23672744068998106,4.354807012506097,0.9453125
0.6525903366312351,2.0219016376763244,-3.4778743344101026,0.6516212238061663,-2.421990691822836,-0.5897174788486904,3.8435446146689167,-1.8877740373166578,0.6658642396446479,-1.4298305525042223,-0.7439699514453202,0.05844665736452307,0.6758390229487078,1.9805500079149123,0.953125
0.44208773578044164,3.3606599581924126,-4.625765833292044,0.5697984627090096,-3.2264930593284267,-0.7333504009384453,5.212751682834441,-0.6667654997217898,0.7356011919726397,-1.142620986698787,-0.974901229399799,0.3692891187295392,1.0649958483644684,-0.38269662307868024,0.9609375
-0.41674930467552035,4.100999813886714,-2.2024515843119543,-0.637255396630587,-2.0367757523417103,-0.8061023526246502,2.7339898591810545,-0.5233711249600845,0.8143640765858132,-2.720753716143605,-0.8145803851247192,0.7839559907361441,1.0815266563592056,0.6494453448868805,0.96875
-0.784101631874823,2.8340823451048673,0.29676152227285124,-1.1163380121655377,-0.2740004718071336,-0.14280944862454917,-0.03342932108655416,-0.845885072000297,0.18529202417403473,-0.6534299830969916,-0.1963464384224195,0.4391597724610231,0.5872687366061387,-0.2929516195953455,0.9765625
-0.4692948735333973,0.18692384267648413,0.8742551707229579,-0.3965951437825959,0.7744049811329246,0.7750030096991437,-0.8917602440520233,0.36436742095901214,-0.7882939711852605,3.9538998294932353,0.45208163112818334,-0.26853055034448015,-0.08339968801963868,-4.486859316354173,0.984375
-0.05608209403766322,-2.0209688659181735,1.1431756127196844,0.26383095771137394,1.2752227424046232,0.8892405517987151,-1.3868708647569892,1.571322056282181,-0.959699499754503,4.308579242178509,0.6617523181067574,-0.49589556738496965,-0.5638575502242703,-4.63639655245684,0.9921875
0.12595483047220285,-2.5437659990403425,1.7295293066586668,0.22240210124298956,1.3480712004270468,0.16844140972297408,-2.073007054887218,1.1364590780527744,-0.21013719723350582,-0.21705427321902251,0.3916502368740849,-0.1677161675200661,-0.6488965286690904,0.7345389602414253,1.0
-0.1294327375552079,-0.6903322934229141,1.2546004656010512,-0.2727990836277612,0.5681898864314127,-0.534352578891473,-1.3911055569452497,0.8307111923938848,0.5024519244305563,-3.635026438484048,-0.0906398599660041,0.4183239028164149,-0.16099420543005385,3.329839593067723,1.0078125
-0.9094413133550258,3.1171300618565367,0.03705830635878168,-1.1837195426335525,-0.5984869650277383,-0.6422536034056732,0.2851910260058192,0.839179925519273,0.593980717698993,-2.9301952710986585,-0.45314408194289346,0.9329281196049,0.7369765378762079,0.17313077471668326,1.015625
-1.5697843406550842,5.760832944352143,0.2446714578943936,-2.1364766264550883,-0.6528397560966818,-0.0817367309534429,0.31102107159312914,-1.4585696416269929,0.14994011583836686,0.08327950357417002,-0.32982884582606303,0.7717546208553503,1.1988357629846105,-2.295331117303482,1.0234375
-1.2340970346803142,3.6635327220554696,1.8839410576788223,-1.9070518793890374,0.7721034763082736,0.8167457520154114,-1.6625027408561641,-4.098374345674304,-0.5950144902477744,3.3393202506620225,0.3303087839055507,-0.19104723196417456,0.523284131536904,-1.6458064277176878,1.03125
-0.020037291025108362,-1.8687669357728731,2.1454761764437364,-0.06843506774209486,1.8086655933987024,1.1747799796698035,-2.4700231795706213,-1.7608272488441203,-1.0633283500163055,4.728595959269933,0.8418340568432562,-0.92488297300058,-0.6713422148226371,-1.8540517492570692,1.0390625
1.0805410048798214,-5.154049977227246,-0.11827360788614585,1.8209468641972215,0.8363898210709737,0.41534990909828573,-0.3551728212834618,3.2743708793489286,-0.5763618182136943,2.1597595861007086,0.49645968585913736,-0.6348808021991535,-1.0812673723651398,-2.162532591592864,1.046875
1.4086759879779434,-3.708640809426372,-2.178320436324131,2.0731937423188183,-0.8751078467058271,-0.6061074484254441,1.953984874070711,3.067436324993455,0.4410303935641865,-2.220627081663798,-0.2682035965268606,-0.08296021284622246,-0.5494781839907331,1.5488319502006764,1.0546875
1.1164275890115416,-0.9767636416412457,-1.7710141757000708,1.0813832616776926,-1.1747526696248003,-0.6713044155657515,1.7323581867158155,-2.023495983977721,0.7720359864942553,-3.349205436952408,-0.46923070568139574,-0.19462563262249796,-0.06326114869926688,5.994761342326576,1.0625
0.5950109823385149,0.215098456044137,-0.7205627947954762,0.30960079696205545,-0.5967056129649996,-0.16049547450282153,0.7289311794729006,-3.692914716501573,0.35306028882536516,-1.197910754187332,-0.20688646693519364,-0.3881951156025246,0.050647939648144014,4.714004185089999,1.0703125
-0.02761186216439945,1.1694653455922601,-1.032418223299675,-0.02833834118279015,-0.7999345097805338,-0.24285455844811155,1.2102507173040291,-0.008158564331664205,0.23694933482364744,-0.6064797993139561,-0.27540215533431944,0.207452322384956,0.3369786934244882,-0.13434858117324477,1.078125
-0.5076382403593637,2.0051702877766004,-1.07687295749576,-0.40647641779768034,-1.0162300295952353,-0.6695246411026154,1.379787735756097,2.710434126135522,0.5183801985407912,-2.294536391640074,-0.490931546694875,0.8883209724870684,0.6002449589997447,-1.631303727026806,1.0859375
-0.1430724627942122,-0.1007037649679998,0.18889898251287987,-0.09610695358512925,-0.0052305461348924635,-0.41426040191501023,-0.1858673912719176,1.6598995440910245,0.33066564205265,-2.119867294583969,-0.15375679756009586,0.43126463214926536,0.03218188566146893,0.5812220472819848,1.09375
1.0708701032050887,-4.196682023411112,0.22678483911479141,1.4184275653341254,0.7396445696668582,0.21916046065601574,-0.6606357803242402,0.5221181258807952,-0.23448154835555482,0.4891880215492846,0.3488224340616236,-0.671672104721998,-0.9217125402717891,1.646353771532777,1.1015625
1.438754458700207,-4.508749515702551,-1.2799323305052315,2.0842051044002674,0.01549747210228679,0.2692226415571749,0.9080733124396343,1.4573354789759756,-0.34294394872640993,1.7254892015128835,0.25786717319260105,-0.7884297858984533,-0.8853277334363407,-0.35920813612821073,1.109375
-0.21595061016303466,0.17281383979267426,-0.3921589367622993,0.02253068593238932,-0.15146455885833424,0.031686110344460734,0.4593366077244144,2.2069994244689335,-0.14934917496003974,0.8491241877941712,-0.0008761853756326089,0.231536530835946,0.09163550936544626,-3.1597486140373654,1.1171875
-1.9385021266476066,3.485613118243522,2.9842075341473344,-2.4187977536787773,1.3317187109331727,0.31773950948207685,-2.7844192020642033,0.6030317568795046,-0.33684973924352507,0.8464226072594,0.26784970652972784,0.7267931668571135,0.5359646084681585,-3.6199531624021146,1.125
-1.22853189875352,1.498707832738816,3.560751281152959,-1.816433147937744,1.994421238140611,0.8201770905444843,-3.6363320412435085,-2.5027144829220838,-0.6675669491602682,2.3953563773072233,0.6241440710433002,-0.16260785698837107,-0.0188261436305026,-0.8612231599915549,1.1328125
0.5809469529671085,-1.4809525792484712,0.7497986873475188,0.39393966945328,0.801131599637649,0.8483087711031467,-0.9979395135415251,-4.183963660966782,-0.6178857734731497,3.2559557258456815,0.4990601659259963,-1.113538538670974,-0.5071548072883735,1.767783544007664,1.140625
0.378054669364137,-0.513320922204199,-0.05914957483007354,0.2963831801159633,0.1528280337177974,0.496540507133647,-0.024025554536609445,-2.543488549896566,-0.35968862098024484,2.2157990601333792,0.22547821965230272,-0.6590782591511763,-0.19171392016211802,0.5805609380265934,1.1484375
-1.3409919877377237,3.035361006275868,1.5507060493601674,-1.707664467964685,0.4709613415177073,-0.008553895537831518,-1.3230251885805924,0.3509678473374276,-0.004838294871945022,-0.32197488040479033,-0.0059252317943250124,0.6648691812203812,0.5571631266439705,-1.919332221459652,1.15625
-1.6034929499944641,5.123813080064104,0.43752607009594424,-2.0692660428821696,-0.6523006388459408,-0.7079048967791411,0.06891659937232274,0.9270796562036943,0.6531729328720606,-3.1581448894679975,-0.5473987892661518,1.3242797880670845,1.1479025693320886,-0.9441805431416784,1.1640625
-0.32054446588838087,4.63844674965435,-3.110435011207459,-0.505345969453607,-2.723454374348382,-1.156422234921513,3.7486833030129434,-0.12232372015092483,1.136366499269262,-4.013337375963247,-1.091291148371679,1.015296401183708,1.2926783933352635,1.2135275970006962,1.171875
0.17614062463479627,3.0895836558844656,-3.796657532888032,0.3081086120084743,-2.75688862760706,-0.8474467873390394,4.32960782975131,0.5835113907711512,0.7887773706403806,-2.0322391126929515,-0.9199000149500529,0.6233346967515181,0.9859342529510716,-0.5281656536538687,1.1796875
-0.2801949430177351,1.7579861216567763,-1.6573351505384601,-0.06834647478552554,-1.1767986638993384,-0.3275100594417739,1.960936757307948,2.1859171444122136,0.20005639651180482,-0.20496465335815778,-0.376266844386859,0.5399494219289073,0.5427186296624404,-3.0920350379597052,1.1875
0.07523655147192516,0.12880741960358089,-0.7521705398783773,0.20517615482472856,-0.49395025117728286,-0.26040296962394366,0.8210775299832931,1.1112984562749773,0.19919517714989193,-0.8121567812701368,-0.18885510953850904,0.22020729553880114,0.11624205204699346,-0.3674668859073613,1.1953125
1.350683645664649,-3.4669367416094956,-0.5551137028939626,1.5093734329686375,0.044991306476670406,-0.08197796732828268,0.20915224840523527,-1.4433320676906125,0.16480268684681396,-1.0314274726474009,0.06516548082559523,-0.7064253653498628,-0.7182310563754425,4.658969592681235,1.203125
2.153866988733054,-8.410688390452146,1.3022690018262488,2.5961236142942763,1.9748368907479643,0.6991039026335633,-2.2491477168101355,-1.2866604498192393,-0.6030149556932973,1.5179776828401181,0.8728940456811158,-1.6819024859216367,-1.9605839995437548,5.073535067048233,1.2109375
2.036143432148001,-10.256046841648043,2.4606016533262105,2.755828797063671,3.0618031415228724,1.0926023039144148,-3.625444748398227,1.0962728651131988,-1.111518723034982,3.2424738250809964,1.2991362936375879,-1.779908206542199,-2.4281004286957435,2.155959942199453,1.21875
1.3310649785566282,-6.057497694331764,0.5833841594392615,1.9167732033754858,1.258672825717903,0.34626322759117734,-1.2091497003532294,1.9436782358793327,-0.42994441086049484,0.9706445460005411,0.5579545783195669,-0.8195789074758942,-1.3314605194825941,0.9417904416312832,1.2265625
0.1524195599018582,0.4346034181245891,-1.141045167687149,0.2499128382611814,-0.8088783019333371,-0.4018164856643,1.255515758698825,0.7771770938574424,0.3555209740457416,-1.4028163768092479,-0.3137686084560432,0.2660659439122653,0.21457740716734558,0.3671466057638155,1.234375
-0.9385487600273178,3.192443495423531,0.15526245935273633,-1.2036643370860634,-0.3232786195910112,-0.009643719887646942,0.15997343251688062,-0.3234161639922861,0.02288815059043652,0.33121672678892866,-0.15706787090499505,0.4674941715592779,0.6674915531521421,-2.038076506920449,1.2421875
-1.1067473173717484,1.7212902314008018,2.0448563960525914,-1.3783817590509435,1.1475253255905282,0.6675156699762449,-1.9834847234227766,-0.4871504975016314,-0.6315512064106812,2.8048303967651655,0.42206015534210634,0.04119344530336538,0.1683529528098947,-3.4318559648529896,1.25
-0.7834889321163496,0.3681714578456108,2.0849945202490536,-0.9415565892988669,1.2542796949910395,0.395123761227006,-2.157537906691623,0.4652005912347583,-0.4061725164320062,1.219737570058364,0.37705093758580666,0.104042571698,-0.08202476777130153,-1.9024759495051127,1.2578125
-1.092968977018823,1.9237052616946493,1.4381604485608939,-1.312531720618409,0.46057269182242216,-0.3262579462080134,-1.3042437189911873,1.7586596821586056,0.24003246325668867,-1.9424605913468151,-0.09354226452779486,0.8273885472805174,0.3791047157654181,-0.9587528016713538,1.265625
-1.7417910710684978,5.208757295288009,0.8837816404580774,-2.246818349986458,-0.30774900044012155,-0.38768097992079686,-0.39799118215552454,0.4170318067481183,0.36182273612691995,-1.6930076245022985,-0.36201452691318226,1.144194349908411,1.099604747909272,-1.9784037523810956,1.2734375
-1.5355829057213697,7.052424101633654,-0.3183554285251563,-2.3102237526333513,-1.1447778778197326,0.026450166189216424,1.006792727427339,-3.8516112917177003,0.16147294459724876,0.7488407516402712,-0.4295639551877306,0.5665931761669817,1.462725219810372,-1.4365998762449423,1.28125
-0.628884118914042,5.357250038578946,-1.2681153905778022,-1.2865929455526663,-1.466095594632241,0.09357892445877435,1.8146081504153833,-5.295684556941599,0.16839111940171378,1.0703191296729984,-0.42096742642358004,0.005301563177115088,1.1318499396143766,0.7194735201871971,1.2890625
-0.05970187075697981,1.730249890235533,-1.1473732164567467,-0.160304798546082,-0.9385731821408405,-0.19194617517866858,1.3717387844439934,-0.9545128174555109,0.23354382095351867,-0.3531634922953514,-0.3030480241869681,0.14065363717011373,0.44422308590299486,0.18225243520678636,1.296875
0.3834688792086622,-0.29032515579112794,-2.1509878767756314,0.8374776895738939,-1.2007159821377544,-0.40175862006014024,2.278099541887681,2.8529862237562678,0.24105151542391148,-0.5718034668589195,-0.3453874042641961,0.300332943802639,0.15385414180787363,-2.086632174274091,1.3046875
1.5061628286860158,-0.9442357482217251,-4.842691799730382,2.154461587756183,-2.698745902874156,-0.5876097720056931,5.032182090017079,1.2718524628396912,0.4959500787250115,-0.5600233344744393,-0.6797430634174623,-0.15586327404566744,0.1762069111209523,-0.16293436545531073,1.3125
2.532569067068301,-3.666212923924498,-4.812668592849029,3.16827486829758,-2.49915123814034,-0.8319432152709263,4.693970948836466,-0.32067228812066334,0.8307332772206265,-2.710383519552939,-0.6765890369794229,-0.6190284436978957,-0.406201531267519,5.3219585681926596,1.3203125
2.0037908431393316,-7.188939156802904,-0.2451111186105197,2.6001029073378343,0.5410260324546488,-0.693582326577928,-0.4540122892983964,2.5150952319500823,0.577784813350331,-4.465308812371164,0.04448269042113427,-0.4313442135292998,-1.4117562340751235,6.610416961578948,1.328125
0.41132210498923827,-5.964221452912782,3.2263743987427977,0.7944956640937544,2.6188938954480037,0.059636603916192944,-3.9630832738843202,4.047925167670258,-0.23864114575774828,-1.642511790736308,0.6961601203310575,-0.13003179013501873,-1.4161507637558826,1.5042494374105628,1.3359375
-0.45079571306130817,-0.7458321744471808,1.9505799625276068,-0.4579808810121124,1.4861896936649621,0.8459176031818403,-2.122117796882144,0.02762516733244827,-0.8324278246872381,3.5391548227809895,0.6314090774415477,-0.38039705092295106,-0.3608880082763264,-3.124155393993783,1.34375
-0.37209195167989817,1.0798647617672572,0.9446755792971863,-0.6262461261593701,0.7110754562641812,1.0775029607478823,-0.9162754457953194,-3.269934051039399,-0.9002881631320563,5.04308824885068,0.5090494051366826,-0.7245793507047167,0.01867085418253552,-2.572774759876326,1.3515625
-0.6241098822203325,-1.7587894794094672,4.159707808501598,-0.9086240947348835,2.8219234257140675,0.9770196286681049,-4.58131927099113,-1.101111295888913,-0.8885048433864061,2.672437980157161,0.942285454728568,-0.5164103185020534,-0.7443810213147881,-0.45559430140696827,1.359375
-1.3895677635877626,-2.3684004701536647,6.796607551769159,-1.768577360083767,4.3845057609243625,0.9668321733480558,-7.403782093581238,1.0139543379720166,-0.9722820215039649,1.4864238237282508,1.2489794027377152,-0.08530165484447548,-1.0058504455901798,-0.9098309538120991,1.3671875
-1.5317963665728316,1.2837756043650381,4.276702106143173,-2.062914723613008,2.441925786175648,0.7826652281192633,-4.394145385690705,-0.9585778418181733,-0.7068025702223103,2.060664571100523,0.7065939683175319,0.08142402838998339,-0.08252467623572052,-1.898615931982514,1.375
-0.6097889658753108,3.1243883567173363,-0.30173543315750084,-0.961285320634191,-0.6313417235519632,-0.07148103642911012,0.61212673891949,-1.8186838611138012,0.16126009944013484,-0.07129924119662646,-0.24686445061773107,0.26807497234998934,0.6644893184291776,-0.11793623058700514,1.3828125
0.6496328302927699,0.991654407076352,-3.380604681678927,0.8670540402886052,-2.40158071823912,-1.2231037074566224,3.676894133442227,1.4327491135904358,1.1273109525038163,-4.548397901177245,-0.941750537939741,0.656543818233242,0.5618384933556725,2.5290331834209985,1.390625
1.4671235762829615,0.026454882218151548,-5.87046236430068,2.1214334153017527,-3.7148867813406645,-1.5571911151983062,6.224815534109709,2.958446766868678,1.3677449330621991,-4.921044105786088,-1.2705079466935587,0.6242310917194299,0.5661465857909327,1.974639295928128,1.3984375
1.3951715785410848,2.1982107748074897,-7.097388959451101,1.9335192722251977,-4.401628104648068,-0.7127647336274981,7.7090531014821675,-0.3746982714655463,0.6867907391052153,0.18097433507594177,-1.1378585434373212,-0.0337477877688959,0.9734918973810726,-1.3186925686630413,1.40625
0.38449525910872595,3.4551784754746375,-4.277571161532277,0.48360057282228236,-2.7385610587384823,0.1827223466888992,4.841125806709409,-2.5796186827812324,-0.07818918543927816,3.4291223804618793,-0.5319467346831036,-0.31544981069397826,0.946432840496052,-3.1977834867117583,1.4140625
-0.7848547081187116,2.35345566469491,0.28220426555009115,-0.9620619552518284,-0.1314219173005072,0.005303885868073833,-0.051718491389625657,0.15773793876167155,-0.01507672700275004,0.30111146652603504,-0.08843861199183159,0.4018301083779181,0.48660139895744425,-1.9495902606792022,1.421875
-1.1749511799218602,1.7230219105545057,1.85704381120609,-1.4258836265059733,0.6168597616905022,-0.6084011557301195,-1.755482373871166,2.4388826837847017,0.489553411873161,-3.6504147765501274,-0.17020586695558318,1.0762577845181533,0.3479653209575071,0.24139997458481516,1.4296875
-0.8955143718682717,1.4634972670753132,1.9688530869512175,-1.2867147006400492,0.7987512561495164,-0.19279133477950638,-1.9335503673052548,-0.15659617897280398,0.2123373246336299,-1.945238540775006,0.018390926833906442,0.5105118908698254,0.2061561417233383,1.235007098716846,1.4375
-0.5271427036403384,-1.1881983163885241,4.042243091280481,-1.0028172875511066,2.6643289524878315,1.0762031072468556,-4.426852305796161,-3.2247371920792656,-0.8767231255082649,2.965760989676087,0.920679530798213,-0.7482185815152679,-0.6572052024883378,0.9801528866840399,1.4453125
-0.006248734529511391,-4.400848417836609,4.758652373370425,-0.15098630168242125,3.640425112222252,1.451978197700175,-5.489663056250763,-1.8263939397017737,-1.3153813956393414,4.407984115318495,1.3529302173873818,-1.2050502768812004,-1.4018754626837,0.17866410179140388,1.453125
0.6084710825448107,-3.3319011696397496,0.635655662407992,0.9329363739706654,0.9318137243454337,0.3600179222741935,-0.9932530683195482,1.1483373909105354,-0.40764296377888287,1.3184492908748284,0.4196987587627891,-0.5026857383167871,-0.7671004495271113,-0.35695412001571225,1.4609375
0.5106608147589101,1.081036830232694,-3.080153288678977,0.7505093928435387,-2.0463782806659947,-0.6819954770925705,3.369606929743979,0.8822452713509065,0.6168075306157381,-1.7854460414043065,-0.6652466875967303,0.3358238443168328,0.5013939227534496,0.20903318358441494,1.46875
-0.2706871442567091,2.6168231691609365,-1.0166810331009537,-0.5312958987408516,-1.1009253962243268,-0.47431545979743694,1.3175842650426273,-1.2156094532918118,0.5292186048647487,-1.9011089177509393,-0.4749481664187567,0.413505103657454,0.648630442589909,1.4565110520175655,1.4765625
-0.2575468717429977,-0.6321909219310693,2.0247975631111954,-0.5200303392244743,1.1996490876634718,0.14773152342644003,-2.220768838814482,-0.9749575634778084,-0.08046952680877796,-0.5819905393158524,0.28407414445030343,-0.08749159251084448,-0.28957031790736915,1.983874642220517,1.484375
1.0072448164505194,-3.812552073128766,-0.1575776798763021,1.3953153101049693,0.40304276241494763,-0.051138882966326085,-0.21018819829862578,1.3754301014058998,-0.012425802283328369,-0.5755470538421232,0.17424903180814744,-0.40183537584558265,-0.7768526020575115,1.640243259385825,1.4921875
1.7215325550371887,-3.158621547075736,-3.7052554149305723,2.4774082095027636,-1.8047610286613487,-0.658718792028011,3.6175877515034514,2.53133562219228,0.5112961780595107,-1.696432841225715,-0.47475838780641755,-0.18832599460958668,-0.3403373693387024,1.1712478511592372,1.5
0.6215893903901921,-0.5865049378454086,-2.0497833035654485,0.9468363915798516,-1.1908146038323129,-0.4901680727882311,2.1240798220281545,1.5114759218666511,0.40121013967766816,-1.4231615640973667,-0.38101341857459153,0.15469223864956136,0.07346172724913783,0.295788640188449,1.5078125
-0.8137499967274775,0.451748763320064,2.3151881904651708,-1.0459613755567831,1.3322026848088555,0.33933884308895623,-2.390458872023032,0.09031341940582865,-0.3292407032189998,0.7255451616280698,0.362473590165684,0.1259627145212848,-0.07842254311835925,-1.077694600803086,1.515625
-0.7704288236126506,-0.4019483814709604,2.903972701192775,-0.9503803529643997,1.91014380664891,0.7276961787342586,-3.1005217199721735,-0.06871242627573013,-0.7038506873032783,2.396105356409434,0.6469016139846241,-0.17748968862326386,-0.3372337687631712,-2.0697741609995215,1.5234375
-0.11363821907933104,-0.5865761854244732,0.2507388720016363,0.09932235111691312,0.45010124060892515,0.5143196148176921,-0.3044692319732812,1.0578195832052344,-0.5653366659926372,2.839321195975287,0.3153124751605016,-0.2220431600350737,-0.1741521172711153,-3.5565339813780525,1.53125
-0.7212193629394039,2.280976770501162,-0.79850411033841,-0.5510160907171209,-0.4959052782126486,0.4062623831446036,1.1058792983478518,1.5707299975758287,-0.49692217929593635,3.391916326607748,0.023448423770719037,0.22714127449860388,0.5205209648578326,-6.459181603065627,1.5390625
-1.860933518224192,6.587340545504726,-0.15178037271808098,-2.2938168163993353,-0.798256460136959,0.2762655325039096,0.8301689513028365,-0.7203445367986747,-0.25163476524578543,2.5875514884484314,-0.2278081624755549,0.7460812237930997,1.3761922603200771,-6.100325986606522,1.546875
-1.0735213973488231,6.531000842333448,-0.911886891739718,-1.895111183201613,-1.6282481161918612,-0.49610484948029493,1.562420148945765,-4.345130434861075,0.7081690937849782,-2.0378097182003168,-0.717296515927714,0.6592461201386983,1.431235289029047,2.2048967116975997,1.5546875
1.3919465877511707,-0.1757363026276001,-2.281071089335187,1.0369338721377481,-1.8511623287858048,-1.2424120285562312,2.3098515484269857,-4.332237578160845,1.4611175829627248,-6.590011836967944,-0.8641867446239149,-0.08104513959898474,0.15909826555278822,11.051635401134012,1.5625
2.2978404324675976,-6.314174205917757,-1.307763896583195,2.752849897089792,-0.249126268815957,-0.7973283313326441,0.7275118926450095,0.39092179258135384,0.7856770142744531,-4.73887442473511,-0.18032527420680577,-0.6002630816069958,-1.1813521081865292,8.41275448659683,1.5703125
0.5675029078155162,-4.38591257313173,0.9341726826415333,1.1245933300566,1.261146441647727,0.2770425725601237,-1.3822355217109878,3.5721354659088824,-0.4487675331866102,0.993104197311121,0.4948078791611107,-0.2994386226197764,-0.9653908302201517,-1.7447260421707476,1.578125
-0.8455478853249802,1.0223471940121722,1.4044173256884815,-0.914966493689634,0.8867294393498553,0.582085511016843,-1.3646014782876834,0.5784798727759995,-0.6052573260664892,2.7648408775314914,0.3700172036739167,0.044216426871530115,0.08336248149379417,-4.012476511223907,1.5859375
-0.11254967711310379,0.8482551563247325,0.8730505813934103,-0.5294434576539675,0.3787118395241505,0.29899148110445983,-0.8839913095773868,-3.54115261417851,-0.10661384531079918,0.6356968696931732,0.13633333561169814,-0.36760165655067883,0.044355482044834804,2.3221075042997366,1.59375
0.4314716035864015,-2.414133514770455,1.5891922374814909,0.3235080407839032,1.243281817917454,0.35839693105156717,-1.945604978148195,-1.7184662564459379,-0.2503647903171491,0.3879344781700735,0.4241909269282502,-0.6069274434260116,-0.6736018897686287,2.855033548350629,1.6015625
-0.8701456437260121,-0.30008906208632113,1.8608680601029053,-0.6994169918146408,1.2915237350548927,0.3636872476732586,-1.941070390988477,3.3918910655559475,-0.5290809669166032,1.6299091755653468,0.4137998835464245,0.3438742869644446,-0.16304211330981397,-4.787427629420559,1.609375
-1.4879201573746454,4.449132476464258,-0.8450952393648703,-1.4065331417538889,-1.0024235302007782,-0.2961820115757444,1.4003940558468864,3.83302144973159,0.08049867623687826,0.30391658053111337,-0.39813170329279596,1.2082585459868238,1.0878309815895162,-6.926481545631137,1.6171875
0.3367255637873527,2.9575475108710485,-3.9148497087471616,0.427879520239025,-2.8006332530449454,-0.7820715393078842,4.422816330262941,-0.2962372305888056,0.7696452226525243,-1.7995329794968058,-0.904560332084004,0.4514079330686407,0.9451521395737132,0.1862063271099745,1.625
1.7179100765282693,-2.3370756603139577,-2.9300434402261466,2.0191369373454036,-1.4831154420894608,-0.33367399713065754,2.8261437027823555,-1.6847373289274414,0.412283309115755,-0.9951162723059273,-0.34370052101885934,-0.6647134533589,-0.30892940447147677,4.109621053519809,1.6328125
0.370029035980528,-2.7459601631917745,0.957470188195339,0.6015674626209518,1.0040091699477325,0.29196679245464424,-1.272755218043409,1.1084461829553889,-0.3367819268455149,0.8590008742270798,0.38681452313172116,-0.34885078387988255,-0.6559423823125563,-0.21397230019257463,1.640625
-1.0358990325353115,-0.018711920428367328,2.807702650606869,-1.1218828541840207,1.7375288770571116,0.398554576590907,-2.934838430061917,1.9338769537673888,-0.4817009342430511,1.06492808526379,0.4868440927364893,0.290759905889722,-0.18750766664928553,-2.938272075265052,1.6484375
-0.12734602156307287,-0.8913485022256322,1.6773439907029537,-0.2813079769890593,1.1452442546727686,0.40501654304439283,-1.8750054158617409,-1.058619537183184,-0.33462248690064084,0.9837041829635111,0.3863067578508733,-0.3142110945453092,-0.3491352847708918,0.6344423015751112,1.65625
0.6352537351218382,-2.4020108767689035,1.0523958845491366,0.5502775752228763,0.9750740649128138,0.46607210530796284,-1.3894407067957586,-2.4446361076860503,-0.32275760653318064,1.1413185349375017,0.4143887830084061,-0.8047138815464766,-0.6590685791243464,2.7915899668692696,1.6640625
-0.8049637266779593,1.027520399660085,1.9376408455331597,-1.1087531508138873,0.9498996317702733,0.09257103844704143,-1.9437241119889428,-0.19531940462209071,-0.0702898457151709,-0.41011626381630295,0.17464270188526762,0.2783320423932973,0.08709929919182083,-0.010417673815341347,1.671875
-1.6700140167623523,4.552066923992225,1.1364544936920213,-2.1311136558405983,-0.12368526527005241,-0.5164145525957641,-0.7238848250625642,1.0686119491747246,0.4591990551249393,-2.5372202743702603,-0.35743329785500083,1.2188993151511436,0.9661583731795749,-1.3431945996700345,1.6796875
0.2355573731710677,1.7069104586924817,-2.2706958242027975,0.24671489545049435,-1.6890246489724297,-0.5984430923386982,2.5624507176178373,-0.2646421305507483,0.5968993786979875,-1.878901761156571,-0.5949101937443401,0.33025701074007074,0.5592379652837702,1.05110465864025,1.6875
2.0901563994997217,-3.335109700175518,-4.063457923534078,2.769243977869177,-1.8482872816893687,-0.14314094444523348,3.9436786791651284,-0.13310985012585969,0.1344761676822179,0.8206971815102965,-0.28804397270695936,-0.8521067426872276,-0.4462267278675425,1.3432496119218624,1.6953125
1.3990603876110599,-4.146720684757372,-1.7524527816213515,2.1200856437957762,-0.27813079199361435,0.24018231622938943,1.452417120753236,1.9801396739444717,-0.34472257653206895,1.9797417655543508,0.1868464131031174,-0.7030021737404127,-0.7682274974118436,-1.3700825213069747,1.703125
0.3306622488678016,-2.2993317356807284,0.5315064757628134,0.5920363490043917,0.7075174983958632,0.23865479037047752,-0.7772953521648571,1.3481065103513936,-0.2998463686909051,0.9120466341169653,0.30131244382651057,-0.26591457384825024,-0.5258187785602219,-0.7959669900565887,1.7109375
0.7304260580110072,-0.585786139163525,-0.9667991357080346,0.6565613925919893,-0.5611245458227407,-0.08053531636665079,0.9287267455029848,-2.436422397682659,0.20664303677542795,-0.5062390809955377,-0.13393940839028845,-0.42987200760231115,-0.09344025206373714,3.2718723160124314,1.71875
0.4349143558769183,2.543761721789013,-2.465474658540121,0.14087219313197052,-1.918115088015338,-0.3715440042688547,2.811051213854313,-3.9169631491332786,0.5604565524843979,-1.076453418569371,-0.5969664947031358,-0.12165013318737497,0.6727185982245798,3.3077304693554628,1.7265625
-1.6571863831383966,5.684435330441121,0.7000014109939928,-2.28240820062381,-0.4197181519237761,-0.138993561478299,-0.1758414234289729,-1.4459798182798365,0.21026645167596597,-0.49084441806844425,-0.309944826508112,0.8389291839092728,1.1599716541113305,-1.6652766440327988,1.734375
-2.501829837726912,3.674154810776545,4.805242651210816,-3.1825682031086084,2.366279128335546,0.49975014701101206,-4.688058428158436,0.5635311173117582,-0.5056912910762986,0.8951117097360407,0.519282361692594,0.8340344210176659,0.4447027478084305,-3.719451440504742,1.7421875
-0.5800020845911227,-1.7343558882080223,3.5906707617551032,-0.7430704555066155,2.439865451290324,0.7017477036983208,-3.9656640304411868,0.14987994885958034,-0.6825887312585849,1.6984068829042507,0.7714712003251291,-0.26983494364141014,-0.6580893629149259,-0.7207275120221084,1.75
0.8223008503674838,-2.383580764586146,-0.7132925123527589,1.1293024047487858,-0.02717013062308386,0.143797996061809,0.5116673290738423,0.334911395659806,-0.15965052483060335,0.8566318796598774,0.12792476512386824,-0.47270451571601035,-0.4718529298227096,0.29623480014163905,1.7578125
-0.4918064802179057,2.400025858232144,-1.486346465970058,-0.37626479475415525,-1.2308773596042502,-0.4991290133324679,1.8401413651116316,2.2461318925710523,0.3680233626059946,-1.1394195208793119,-0.473876153426307,0.7573874706775828,0.6866616930241908,-2.6033105633184954,1.765625
-1.6800483595642288,4.117300130679364,0.9006812596118462,-1.9407920386732305,-0.18885997231415785,-0.6430749473658228,-0.4962771707441825,2.9300641064159563,0.4875240126433069,-2.827671543101403,-0.39387282076911206,1.4203428983197588,0.928216829377759,-2.6124365565730687,1.7734375
-0.25747966105742875,-0.4433501057803353,1.19110429111699,-0.3468518026944043,0.5665541746667041,-0.4101360170770428,-1.290242031706573,1.2491619746619984,0.35485780878662443,-2.7800644961914025,-0.043795622864096745,0.42977102937210077,-0.10977428869689311,1.891785237267056,1.78125
1.4713397993283592,-4.248080024322648,-0.7279150825056454,1.815990378869125,0.07059941199996148,-0.12288876793484685,0.3326716930735715,-0.07480532985635448,0.13344408422910942,-1.024644869877094,0.08761994743334969,-0.6576425813509019,-0.8490138516733868,3.79356911096357,1.7890625
0.9625125770322629,-2.4833607343143638,-1.020473758093066,1.2881613497181699,-0.21584959467777307,0.06685351533820988,0.8280741679904393,0.19335800741422188,-0.07608138659440006,0.5438372126494556,0.06419899844491347,-0.4930252661639495,-0.46907508430153955,0.8112310519134155,1.796875
0.006263429497099774,0.10020242356042562,-0.15586214156605044,0.041098905942313434,-0.011442499813790408,0.23398414752364322,0.1737479068739835,-0.31902438350447476,-0.21600050930091344,1.3386765589265268,0.08800460942572005,-0.16712409391647806,0.0038376778401838026,-1.1139970133799588,1.8046875
0.9989550959123663,-1.5789101326498172,-1.3985574056226013,1.195830598637252,-0.3965388390762152,0.5830103694012491,1.2919448664722908,-2.2895827552504695,-0.4648142235264585,3.300639258371264,0.19630615680461652,-0.9746552500884924,-0.3401277409952188,-0.11854395445988919,1.8125
2.3220656775254787,-4.527773849781608,-3.287094734260886,3.001672188462292,-0.9343077019560808,0.8889818887002134,2.986960448439086,-2.413350951172066,-0.7696258064562607,5.523112684683295,0.3121315354041369,-1.7972001060581757,-0.88261278885385,-0.4166900225973073,1.8203125
1.346071427213207,-3.6883300857610406,-1.552519848428952,1.9336544761312597,-0.15935293168037915,0.5238246147615403,1.2731869571467087,0.4278411365599157,-0.545596934744195,3.231820119044579,0.29781448817716466,-0.9548857210631085,-0.7336236694454458,-1.3960674852406523,1.828125
-0.8039557021716426,-0.2585058984537364,2.661194790285042,-1.0039908645255358,1.3890937275326822,-0.35115751716696025,-2.818227365547717,2.034691961459348,0.2631745020012916,-3.0698755692905015,0.1262935355534031,0.6674391624360868,-0.15598149093189434,1.3171653847878035,1.8359375
-1.3123599802182868,1.528772263101869,3.6965558173450845,-2.002313645948987,1.529813601208226,-0.6903112807831229,-3.7604408372054627,0.12143547852333067,0.7055817241198843,-5.605314454639772,-0.05471953886028456,1.0044329975686461,0.1645732842046851,4.6657789225961315,1.84375
-0.32811436565755603,1.3775416668535183,0.4527478899333009,-0.6466863895991765,-0.08403612071213741,-0.29867536886677276,-0.3616826823090013,-1.1983415894322094,0.3635091697754956,-1.9267272498940318,-0.18630230170631765,0.27932524946810194,0.27639329901568555,2.272330405607347,1.8515625
0.013490119240347143,1.5181990280211448,-2.0066961691103073,0.1959375912940258,-1.306529700637041,-0.154812774243748,2.2816289300709895,0.8048236167439408,0.09833525017081857,0.6395649281935452,-0.3323948759376901,0.20910916282579795,0.47564788923120915,-2.4412296794291595,1.859375
-0.5423437401491022,2.0669883705451064,-0.8319353102764258,-0.500342433876622,-0.8384149334298411,-0.48717086183098957,1.111605868874295,2.0327595727672176,0.3720688704834201,-1.5260511128258847,-0.39154076623884443,0.7410295591515074,0.5703843361249449,-1.779881914192342,1.8671875
-0.8179213003530098,2.2818417925664316,1.007785085955784,-1.2087627259539693,0.10615380732093199,-0.34228439404871996,-0.8396995402496201,-0.47173127952069643,0.37016340633451716,-2.1777019219958627,-0.19088877169335833,0.5828771841418695,0.45030738029595924,1.2470120755699186,1.875
-1.0068646455355468,3.2199723282824677,1.1605353578885151,-1.5161675107044377,0.3306171972625404,0.46263878361552807,-0.9247406618100243,-2.7695592856852693,-0.31479148540577007,1.9444551780931,0.13168307079916436,0.02207254012399434,0.5284158115649359,-1.268611778034009,1.8828125
-1.7933876851053456,5.302034366572213,1.1998105539140709,-2.3000266688178357,0.26178541523752014,0.7916177722813412,-0.7377576346127179,-1.885806436816163,-0.6944901114777802,4.2880823085131405,0.19896219164602744,0.26382758122174066,0.9511094016958245,-5.841163906281348,1.890625
-2.0322192593495934,6.0707595732843,1.380904322306744,-2.6891843864858505,0.004404091517284707,0.08900955514562434,-0.8503823832466698,-1.0937936451278103,-0.033556672173837725,0.5489128097411244,-0.1501788630731234,0.8816843892096032,1.1834096084867065,-3.3033843507977796,1.8984375
-0.47757426649950296,3.395610429292933,-0.5186010378384494,-0.9774755099244613,-1.0350543914323418,-0.6584290315685961,0.8578140697000589,-2.20789887871808,0.7672854142272435,-3.262417166274405,-0.5692358773392651,0.5659189895280878,0.7868355176982108,3.3371746372624234,1.90625
1.4588472890832556,-1.369320877738159,-3.068108593959844,1.7126873118424373,-1.695531087895028,-0.3858918423728303,3.0782826241021075,-1.5014988129665017,0.4519058001800357,-1.0138268362994054,-0.4288022829943507,-0.4817786773660504,-0.08588877943823119,3.3319380917354797,1.9140625
1.7080702033342035,-5.235755933654551,-2.0840403364431435,2.638233989497339,-0.20527999427695737,0.5017416240810532,1.7072386879665042,2.413687442848826,-0.6284185704932463,3.527037135539257,0.3420565939827453,-0.9959627030118615,-0.9981367668425118,-2.6845815123644186,1.921875
0.9921667095314315,-6.909415270447223,1.0510322980330888,1.9510516909273237,1.8492205411034954,0.6562770265397647,-1.7369558169440806,5.395723069592837,-0.9174396181292535,2.98345192977418,0.8413867084982579,-0.6642420822016233,-1.5200968614910986,-3.965034651467051,1.9296875
1.2927308078271789,-7.313993950195495,1.1251227248853457,2.052036929604161,1.5547239344307355,-0.2618746913866142,-1.8751825164220615,5.10751055543744,0.017599820526990047,-2.314237053259586,0.4240213231945996,-0.243230357099431,-1.5266483108653928,1.9637166715505552,1.9375
2.2792479595780026,-7.684958718153323,-1.0417423357859235,3.048807404437062,0.11322067730657671,-0.9143598406658476,0.3456232208444417,3.5157158406396136,0.7413667690118095,-5.154336042558428,-0.09873437774690336,-0.34577675350949477,-1.4317480105414897,6.622534432024602,1.9453125
2.265599509018758,-7.56822849949458,-0.6848553755751197,2.946795545109739,0.5104552129278814,-0.22096168273078418,-0.038614093835900504,1.4886948917892702,0.15607178025412885,-1.8520014811311136,0.2356637386411692,-0.9162742294324333,-1.5265237208291507,5.195314643975518,1.953125
1.3027481361638233,-5.172713577437987,0.9287200030943116,1.582930392758308,1.4496417324234445,0.8991784682953633,-1.5272385772781092,-1.6165932452976757,-0.7957294154225181,3.321052841541431,0.7638678615515113,-1.3784487758559265,-1.2715080632111089,1.5068872963263664,1.9609375
0.37430073284292537,-0.15029526630296844,-0.1340234005807595,0.25196110597474647,0.2237017807439445,0.9832013366279134,0.07946163034180928,-3.9947047941694493,-0.7709766222204832,4.748835579076554,0.4137528166821644,-1.053304571099557,-0.17904683152071543,-0.7962753762650219,1.96875
-1.0064729006110245,5.547837390346982,-0.8972948020880726,-1.5446575074960016,-1.1791843635664927,0.2361868161260848,1.4687089565778404,-3.6257409011337196,-0.05997586304184242,2.0245506560377104,-0.30443017980255205,0.1904965443853152,1.1609442086046415,-2.0122565166934585,1.9765625
-3.4496611826326,10.526443923369463,2.6296233737116066,-4.757709051114238,-0.07093723726385616,-0.3102340093063646,-1.7336200737683802,-2.33928313334294,0.42909112108103514,-1.859064299847764,-0.46687579868421625,1.7573984408287162,2.075467244944621,-2.432414324014187,1.984375
-5.3233543810068795,14.81044576841852,5.30202649330649,-7.3375605974995,0.7087774216469798,-0.6260986976408668,-4.124335792224908,-2.5951244928413146,0.7654181285741267,-4.4108942123037735,-0.5855184553478131,2.8223168320053538,2.8492677470215404,-2.2577063409993925,1.9921875
-4.524974103870707,16.354614539677712,1.0579391165023209,-6.249071558293084,-1.922050272950103,-0.9542731316732125,0.5057187944094396,-3.2412189104010842,1.0989434327814538,-3.798640378456831,-1.2364705788216046,2.7321185857357424,3.4641103793941626,-3.2866409547123077,2.0
-1.4808326171058523,10.821401149747306,-4.971973609742936,-1.948522612837265,-4.366207836676835,-0.7146902121416948,6.327004841890805,-2.198249411272275,0.7797530667912399,0.10343367104925089,-1.4009045780311091,1.2733245027204623,2.652069401197616,-4.87096270930883,2.0078125
1.7380853183049312,-1.9340303441727091,-4.624379010211467,2.49014460382146,-2.1531482070415144,0.25983373260105175,4.692322783898265,-0.0015700256488888535,-0.2816049603875883,3.6469085526797183,-0.21805121115440157,-0.9051994012408354,-0.14936956355027495,-2.5536549501129078,2.015625
3.872615642718207,-14.203639581452567,-0.36674509740972877,5.24651880186192,1.9822256490532195,0.9473125192385081,-1.03343513482234,1.899412589962696,-1.0178481961658108,3.474605814988283,1.1718023722487771,-2.4896159467568095,-3.067065781277561,3.5865211752040347,2.0234375
4.476034535261182,-17.28722291561471,0.2894970776186765,6.059093482961488,2.6663753402660078,0.7242455399776322,-2.0281758215556724,3.326819537283674,-0.8598205090950785,1.6287347425076146,1.3041669167483287,-2.5973479936282313,-3.722096365316357,6.018420103467991,2.03125
3.3235606869521237,-11.02447263643344,-2.3211084734820893,4.756618838002034,0.2694495298453009,0.10386686249004198,1.3794672529827607,4.262185527196299,-0.31763927625926525,0.8221051239418039,0.4490077012434136,-1.4575679667806862,-2.1509566136776166,1.9059886262913148,2.0390625
1.2591733542727233,-3.2553970468539855,-2.585890798815968,2.044426912041898,-1.0778575791143017,-0.4981212151267307,2.4468957421090596,3.9349895298263933,0.2845803943485736,-1.155190609969607,-0.2673573685122208,-0.012146584920555672,-0.42547474510986943,-0.6873421544905788,2.046875
-0.21409289987560157,0.16166616642756199,0.3278396692732528,-0.270863554645705,-0.1559647200303505,-0.9274457761392527,-0.3119170974730272,2.0915882106222736,0.8224698808151772,-4.934092041549047,-0.3948792796261978,0.8203592070166104,0.13521854375704923,2.854507369008464,2.0546875
-1.0578824257690438,1.2682015758930243,3.014110696135194,-1.636444659291905,1.2314465874644842,-0.5851643320341611,-3.0633174555027947,-0.02200648403447496,0.604946120817726,-4.718627477421183,-0.058357208655782145,0.8204659749197174,0.13910040378902286,4.060397993160281,2.0625
-2.3033778559103593,4.034573454131738,4.194497581066881,-3.0434215637984843,1.961587959050361,0.5254703199841457,-4.022143790507611,-0.6994336760532753,-0.4702901702160774,1.1779860589450302,0.4381960083893113,0.6638630512928471,0.5380042190654578,-3.003289522930593,2.0703125
-3.3047780488820218,6.558023230083221,4.429343597517611,-4.058564772367313,2.014352904567929,1.0331672288846028,-3.9907024501066473,0.1959828135030405,-1.0294098872437807,4.490370581655745,0.5876645452375286,0.8945828240654425,1.0258718070378958,-8.849964416060939,2.078125
-2.2122153807693627,4.555980729352173,2.8156959720800367,-2.7441601911643754,1.1030032462424662,0.29917599687248586,-2.493373495328926,0.657061633726989,-0.3239929757669686,1.022453440483973,0.1887449977369187,0.8886720354095363,0.7773218127301584,-4.533088143086768,2.0859375
0.5216436354508954,-0.08693045975618281,-1.1241458868594767,0.4913781276971783,-0.7728300343587404,-0.34050620077287486,1.1578986743466897,-1.1601842219551717,0.39787681387208623,-1.5397641434490166,-0.2823974325569823,-0.07498517893106955,0.06700623108359532,2.7470855786592865,2.09375
2.13957580719397,-1.4120112786571124,-4.584886586680756,2.4077730243806386,-2.4471730228566586,-0.024529638224664838,4.636760038372522,-4.315724982497767,0.22890956331138013,1.2784356655904832,-0.4353994182742925,-1.175297858522804,-0.07827563050504914,3.780619371661868,2.1015625
1.5207416453946123,1.165340176855761,-4.504854614276568,1.5034957301441536,-2.6723333005248966,0.22015226711389907,4.795759752373925,-6.031896680385821,0.06914436386686681,2.7045765445863603,-0.4645424889473705,-1.1156061878165209,0.416751620518797,2.3926195433047552,2.109375
0.3104062415531315,2.7533187597426965,-1.9575206411299575,-0.09812735193269746,-1.6053224183799797,-0.14702908725594308,2.2794507940407884,-4.857643657659556,0.3873850969664194,-0.2427604123076604,-0.46313128583960667,-0.2742562694398104,0.6500675978584407,3.2655779226674557,2.1171875
-0.17977041510282185,1.572072555348832,-0.2069732080168001,-0.44381570149165633,-0.42642563752244017,-0.16989145248420437,0.35292857332255706,-1.6622387854182878,0.2553271752668781,-0.9044632759080806,-0.2037896206400332,0.11571829907766246,0.33975245397903187,1.5605214273317078,2.125
-0.33781009139438883,0.12513528905864074,0.16701608343416913,-0.15738890975229336,0.2283194929007434,0.2431462246852661,-0.1370394966106923,1.7806033961229313,-0.33455559903058363,1.6296911963037832,0.15064190080358436,0.11360864071702383,0.020016816738028964,-3.4927625138641742,2.1328125
-0.3056698899170626,-1.2887051628222963,0.7723389438700866,0.04819082151091245,0.7029553522779107,0.009558668915878234,-0.8922708246572119,4.024810935597907,-0.21257695404876709,0.1980830163652126,0.19855359926889884,0.35562582863107245,-0.2626133979747498,-3.346667012686082,2.140625
0.4492241743539162,-4.357744269761904,1.491460527211568,0.8477763343463824,1.2382598795893696,-0.5918496922714299,-1.9664341127794756,4.592247866190759,0.3707541568015271,-3.9609099631611016,0.14249902277381643,0.3632690999729118,-0.8948845589943221,2.2789990040417334,2.1484375
1.2525851878566605,-6.640731464915067,0.9993705745413756,1.8809320763792259,1.3438986015463226,-0.33194998947965604,-1.6841451374129346,4.169300332456298,0.1350225140182655,-2.7091386318662423,0.3314022130799152,-0.22674615799262332,-1.3824240235371588,2.8619612114342505,2.15625
0.6590233481904021,-3.6950761718127763,-0.10070977045199457,1.273634617169213,0.5853281523938966,0.19731316334907392,-0.22186567808461685,3.504245311765972,-0.37296449000172033,1.2143973696958603,0.3213556116403896,-0.2634258663757971,-0.7472571521015605,-2.355673835939235,2.1640625
-0.812494217243845,2.482869450709582,-0.4385365777961525,-0.7978687121724688,-0.5904541468616913,-0.2799450518605257,0.7452302627266071,2.0898521468104363,0.16384977811164209,-0.5043667452440518,-0.27513998216325736,0.7357389102337968,0.6154569354808203,-3.1309105759518694,2.171875
-1.0915927347389458,4.979748470210225,-0.5468989080715166,-1.5795123529315416,-1.2145965499920133,-0.692665873887128,1.070846234333976,-0.8564442106937528,0.7266725456903687,-2.9082243147535496,-0.6513352487498533,0.9826574928696216,1.1498546221658899,0.6380494752888521,2.1796875
-0.07417247014466562,2.636897607967135,-1.143585337920011,-0.3768486910007459,-0.8823929046317824,0.45544629788190016,1.4297457318330224,-4.051511236977676,-0.25223737592370893,2.813382323255647,-0.07972028211921559,-0.4476866313968669,0.5283860079344858,-0.5536168763840065,2.1875
0.1495783503476965,1.3223461940500656,-1.051985765837731,0.10780619972275898,-0.23061978770774105,1.5813194005711608,1.2029233843663298,-4.610467848956839,-1.3464075592209,8.724574217844177,0.530132887380369,-1.3276063593424274,0.12524035662962602,-5.180507613245103,2.1953125
-1.0543334651516718,3.7260297060398533,0.42377431471783894,-1.4351211094629683,-0.08122919487868308,0.5193855088336553,-0.088328977453985,-2.076155732077708,-0.41372235452874073,2.884983331043098,0.07213530845794378,0.07496021872226108,0.686664384946846,-3.2422159661550745,2.203125
-1.8675423840501575,5.686376593177407,1.6826375286706488,-2.7318750910015503,-0.2977949351473414,-1.2363070479489107,-1.2138775377308328,-0.18660056622565038,1.247143488737608,-6.913835434726206,-0.7262468623357675,1.696228680186749,1.2243532664637338,3.6370960766868694,2.2109375
-1.0375921061902096,3.4958252309296376,1.4680466912403651,-1.8013651427915016,-0.06816330138084313,-0.9267387806888139,-1.231263193962885,-1.7477853515708457,1.023126470323065,-5.740193128154468,-0.5070401089184982,0.9858811491669471,0.7172549155809297,5.368845776961128,2.21875
0.7936257784607473,-2.4578292742098267,0.6517151343485686,0.7511104848033082,0.8440858104339024,0.7119377432677819,-0.9786469189449578,-3.134043153419354,-0.5357797862100214,2.5894692122592318,0.48814329287810565,-1.0713995922158988,-0.6802879310600319,2.0248960356948356,2.2265625
2.675365708006966,-10.327446982029127,0.26346531743250423,3.63513041256243,1.856649758065668,1.045393497819283,-1.3156866516191106,0.8300492851170295,-1.0638593967644387,4.114558407616602,1.0666845201766726,-2.0184697019533306,-2.30598844762769,1.5428952250878503,2.234375
3.6994333272838857,-15.503980602704512,0.11230479489789834,5.353398896966324,2.177837109623958,0.014608153217067491,-1.6157549299326952,6.916132824213375,-0.34313094490906454,-1.2440353349510163,0.9032053851148328,-1.5260259588146416,-3.2085791282115683,4.265041810904059,2.2421875
2.6196631984681216,-11.004829085215915,-0.22362136549352907,3.8543299352650693,1.208244865165044,-0.5344464706586332,-0.8134103360052785,6.467303841474467,0.21800564522506355,-3.4576921739072763,0.3714649020768344,-0.62714346727116,-2.1823519161692513,4.103010172814709,2.25
-0.258795201537936,1.6434914851299365,-0.578623460249997,-0.37012520179756925,-0.6138453173881809,-0.22370255977439463,0.7711751822368479,-0.2635263158337652,0.23251068991950885,-0.71331875219087,-0.24984654790744137,0.2841228722662263,0.4043567176006379,-0.06615726113750874,2.2578125
-2.3087849414811457,9.371433499817599,-0.3236717005237005,-3.1679146938319724,-1.4005310081047198,0.0439921051084638,1.2619926859990975,-3.0928014459314594,0.09879010442149623,1.3925680507137008,-0.52987249886301,0.9976066290697881,1.9673223379094282,-4.308361478672704,2.265625
-2.1212565666316365,6.066197635232114,0.758627956911722,-2.514476063973551,-0.2788327449049374,0.0505280000828187,-0.16122925125274343,1.092766696548885,-0.11482336193501051,1.1027464351080642,-0.1982749698902208,1.0985806187166627,1.2579268241032706,-6.033059011003771,2.2734375
-1.5046004639589245,2.9985311405089545,1.2395363481722073,-1.6351517242862437,0.37763053692296056,-0.003480319536656341,-0.965459864425637,2.5096138489874082,-0.12581794485574424,0.2975254471954706,-0.0026615897940064095,0.8801360504768476,0.6005663625225596,-4.66211168918306,2.28125
-1.8377684788256474,8.471630796983895,-0.4957391837264757,-2.755409753077912,-1.526650751853376,-0.23320528871130106,1.3375998288846234,-4.019990462863295,0.42665344520406295,-0.4026526745106055,-0.6467111367462606,0.8875871957116067,1.7987724761141388,-1.0020524389803735,2.2890625
-1.734276147526788,12.28232384087036,-2.828888458767232,-3.093634513406855,-3.4796324858196104,-0.4194536351388227,4.126136611635549,-8.86314305701279,0.8464050530356776,-0.4821397549415419,-1.2192060021868971,0.7584038747793159,2.7011631172114154,1.4075882141993605,2.296875
-0.3486188665403109,5.151468418639985,-2.564537631592678,-0.7580673209718989,-2.1844938414833757,-0.10726780236941447,3.1849880450824273,-3.96156820590771,0.29200896324431314,0.8794323914455547,-0.6132331644615148,0.11239830122767308,1.2085592464844161,-0.29132068867737576,2.3046875
0.8584963857634818,-3.9607190661414853,-0.5537964100227724,1.5547094376903496,0.427571005159695,0.3501422082442314,0.22665257376476486,3.254165652623728,-0.5150965645030093,2.223169928883797,0.36201742393635417,-0.463505068562075,-0.7941736089176744,-2.9733885824195556,2.3125
1.2638302683935487,-5.386081676338371,-0.4692723980554887,2.0362764244472054,0.6270637746753829,0.2954905590306938,-0.012143681880144898,3.2616302486635376,-0.45733492819634336,1.636234548707112,0.41696693567512866,-0.6399876896063217,-1.097910159897345,-1.478536113210492,2.3203125
1.8725872960410146,-4.803954047215557,-1.7587069237297068,2.4137399722868063,-0.36794907724961823,-0.022252439535637387,1.3603640904318877,0.03819017648008254,0.021729505907351343,0.031227372564752113,0.06776472076321573,-0.8884201956056199,-0.9116732066257726,2.9470164519397546,2.328125
2.1706774737519408,-7.611272875973309,-0.38874586693924623,2.852116596715777,0.7223617732986312,-0.1247630764927458,-0.3559104228707011,1.5945581395421975,0.05660995961530562,-1.4562210986174076,0.313673189062214,-0.9340786525922219,-1.561997044122389,4.723957357767009,2.3359375
0.7192123868111998,-7.279900389921673,3.212915777600389,1.2256137815996115,2.661299807852887,-0.31597696269584497,-4.076768842084124,5.311675449946459,0.07317409778184786,-3.7069961129461135,0.5989353026849227,0.027246544705938455,-1.6407209737844497,3.189528558176779,2.34375
-1.1390484661027278,-1.2896168692533798,4.329207715840378,-1.3496888520897872,2.3433111333375862,-0.6854487962971446,-4.6564021818272,4.23389679728627,0.49400424451279723,-5.588471294748608,0.2072185544012519,1.1252791413860943,-0.41360795818268004,2.387240289205226,2.3515625
-0.9530562557578747,1.5691544892296563,2.333862726512011,-1.4657972344884418,0.8936953687542655,-0.38200714672928243,-2.313531057260884,-0.4492720760936103,0.41927753278281166,-3.244981571635683,-0.04681469214031522,0.6335369644683884,0.21994528320887974,2.7830001513032996,2.359375
0.30432317973047024,-1.5818644239862896,1.4385306035845675,0.12850248700151845,1.1937200378929067,0.7866808420519806,-1.7144186018221756,-3.0461996071053594,-0.6120293348288783,2.7362574753125846,0.5555440063429792,-0.8900104062021876,-0.5483144340585447,1.2459766479848036,2.3671875
0.17881807406023312,-2.819080119562993,2.5646394774477157,0.14495332245425147,2.2519830689266898,1.4718095006680116,-3.0154106000189276,-2.465657660204793,-1.3187007093731973,5.860690284646811,1.0634422965010284,-1.2744774336432416,-0.939659885815076,-1.7026027613545758,2.375
-0.5369832677078371,0.07854918009067079,1.760728897776503,-0.6575305500837417,1.24246864232793,0.8028915456999342,-1.8507626803613477,-0.7965038510449787,-0.7482766958499635,3.3787959588487197,0.5390998537421756,-0.34836730734508137,-0.18214981377511832,-2.6740123867461505,2.3828125
0.12636226947762738,1.0300280061743352,-1.843323087356929,0.3192702344068377,-1.1557455811471473,-0.13356511137061147,2.06485317125581,0.6780191533638774,0.08685415831207292,0.5608343272338341,-0.28436884807025115,0.12467231607744385,0.3576416459945495,-1.9223915401320053,2.390625
0.8845411445332704,-0.0847115087316306,-3.3747357342889357,1.3205748260713415,-1.8363924011837651,-0.08618215505433317,3.56151003307959,0.36522488510572604,0.04848835483292022,1.4111730067195158,-0.3548032052138096,-0.26235103584950575,0.20599695966164042,-1.7966256075605076,2.3984375
-0.28564738162138115,2.175727809095695,-0.5826480486127125,-0.4810585210636743,-0.4839191469848709,0.41958127129194894,0.8097855240602803,-2.331162615352531,-0.3033321759563305,2.565808679638827,0.0037349021716231,-0.23667560009937583,0.42460869678587687,-1.699363337271385,2.40625
-1.8201103722205996,6.639781358788514,1.206797718149846,-2.7406017270459095,-0.2199168743264584,0.16706746598978564,-0.6487444684044218,-4.0246450186693705,0.04018808618379849,0.5993227178481823,-0.19742268720575287,0.5601323285093377,1.2637073550398459,-0.828785659297141,2.4140625
-1.4184405777039775,8.17400676326736,-2.315380114819908,-2.0275832706437797,-2.6421364278028343,-0.8163972528502266,3.2476177486398803,-1.8935624015725059,0.8868165086178902,-2.2955830333296734,-1.0562250826137614,1.233324659480712,1.9370221062942512,-1.0137996155195292,2.421875
-0.40529554146307417,7.40804663793584,-6.166624639077932,-0.37857714681230414,-4.834206806387417,-1.5575643227989286,7.2692968438373935,1.1288767970175981,1.4466556710816176,-3.8716070346510665,-1.700274310043741,1.4963478548974813,2.130600347931064,-1.9674377183540488,2.4296875
-0.8561149154321314,6.814403678625721,-3.9803926732371098,-1.0224919746272094,-3.5763281326177347,-1.5765528627951642,4.904273497767885,1.5706771895920035,1.4571888662400532,-5.188324454220485,-1.4641580103655865,1.6910016276327133,1.8766664751748567,-0.6539324241377019,2.4375
-1.3306072162313545,4.2204304702610465,0.588162270918102,-1.8176783837646635,-0.6056374560038457,-1.0776873569999457,-0.1874233368152549,1.094766321930565,1.0173621462372424,-5.428266818200613,-0.662111993731591,1.427619926954,0.9841719175163444,1.774325476964347,2.4453125
0.1313829995719355,-1.502852503914922,0.5599210756656664,0.2640256307566915,0.4213764671584522,-0.29369098269746685,-0.7236897616517751,1.8087552823747823,0.2076636620400473,-1.8544646491855101,0.013686805681077363,0.2070584547589762,-0.2991051836125252,1.0611932240688653,2.453125
1.6701909290998374,-6.050034401487218,-0.9680329606781898,2.5103653696048656,0.5126921684792131,0.5591828601376617,0.44061980726184397,2.188697139890592,-0.6654744005511387,3.057759365511916,0.5148877158446477,-1.064855394379414,-1.2500682073670624,-1.4521835154179457,2.4609375
0.9135563147996837,-7.0876188200068775,3.002926415588639,1.3930422736262564,2.990474945578465,1.1254822285002524,-3.864650418627276,1.4677458427874825,-1.1674627477868973,3.7387018813547974,1.2094999797041224,-1.2193745294660516,-1.783920501018359,-0.7149138245197354,2.46875
-0.09499405014780328,-8.451367555155786,8.40101808501929,-0.17712918491966195,6.1367457206606435,1.317515797984279,-9.713392190691826,1.0775584447093165,-1.302875466838872,1.5564470382874815,1.8816971320900362,-1.0320271419589513,-2.435002570937034,2.8365621752388073,2.4765625
1.6753902469907067,-12.309062363746317,6.286777382052786,2.0610621329064895,5.48960768855932,1.4350112082335182,-7.889137834379181,0.21518161108913564,-1.3798394264475573,2.5480318839086804,1.921801723211076,-1.9980789149197762,-3.150257274474939,5.090740390831644,2.484375
4.231892331535404,-14.024629785197853,-0.38295994536984757,5.328466580330703,2.0333879366444485,1.4664224058378377,-1.0536183189680164,-2.33308036608522,-1.3143467987135864,5.577857807299069,1.3534233949895709,-3.2529296401302106,-3.142438203760894,5.5085157456357745,2.4921875
3.4281130793066774,-9.210092367228624,-1.9988519103680025,4.216934498474763,0.32329426712257286,0.9125284403493459,1.1339441996342876,-3.0436514880018968,-0.7428838114562755,4.03712012012534,0.6774070880639327,-2.464032987566741,-1.9726659125544903,4.701384694890829,2.5
0.03217894019652242,-0.8414836911547988,0.5064655190903138,0.07570273236130914,0.3245932170656138,-0.19637005977048136,-0.6087318815832509,0.9867103185665488,0.15138970292620418,-1.3279622966721654,0.010325527344910252,0.150532465849824,-0.17660171517185344,0.9160194333636501,2.5078125
-1.8213177756115337,5.426567093819621,-0.5464333209143375,-1.9105878146555941,-1.1986494735381856,-0.9306171189563088,1.188650386567379,4.534423912902097,0.6785699284547511,-3.1043604775913747,-0.7156120175358801,1.8216342854398333,1.3494761939296507,-4.767189184659471,2.515625
-1.82962537453737,9.736976927759533,-4.028573970515934,-2.034296552188804,-3.6569946248017047,-0.8277154993896706,5.268810913297887,1.5037042779878174,0.7045950701819883,-0.49497153199965155,-1.2594935451826241,1.7061645687616573,2.4292059661475522,-7.215448744307882,2.5234375
-3.1335550913600554,15.604122849988261,-3.1208526376695853,-4.332723819269392,-4.017199769430936,-0.717446263206219,4.832371731216761,-4.199256251982594,0.8884062952805377,-0.5040332916795618,-1.496093555527865,1.9501171832812985,3.5266371638061536,-5.281430801752011,2.53125
-5.624525159765994,20.598216271593184,1.334538000431489,-7.855688071348154,-2.448090832506622,-1.232686776394517,0.6238129092653305,-4.663046675671756,1.4455505394331938,-5.06796260166252,-1.5797351822531018,3.38867946451461,4.356783871449,-3.2772210943608444,2.5390625
-5.624855371947253,17.66774217992907,3.073929247925139,-7.58622758082316,-1.1374157379676462,-1.4864788008520708,-1.4642535741629217,-0.8882563361931504,1.5175173871952432,-7.19308979797144,-1.335389562252308,3.70882028946502,3.705456088178939,-2.9571196976638454,2.546875
-2.0987764763235015,6.739100390769844,0.8519752334678062,-2.778109180392787,-0.5895494270048017,-0.5406913201636369,-0.21416728266037607,-0.07118549900878421,0.5378318748360763,-2.3767291400086683,-0.5237241863035313,1.4001958204838985,1.4351489143210692,-1.7710754350616136,2.5546875
1.9434288198151035,-3.8755729982212466,-2.268088414835548,2.3777976392744997,-0.5522510927238901,0.7070315968399745,1.9679059231336693,-2.8355213019866485,-0.5612412277131298,3.972263773845953,0.2833596970545889,-1.543842321272075,-0.7956804823367561,1.177863672488968,2.5625
4.1099097557944635,-9.476436499851271,-4.387744223971781,5.213648121282776,-0.9847827939011068,0.7494501680952163,3.632443248037363,-2.5837361894775905,-0.6180605823999032,4.476865526380047,0.3909968086779638,-2.6013249348354273,-1.858125078308095,3.932553634311315,2.5703125
4.546099256827215,-12.847045072151664,-4.202577950416016,6.174563638082794,-0.6363623058961612,-0.07590289782089009,3.154712486013061,2.92840597038107,-0.07476259343848565,0.27791361727301583,0.2582534175018671,-1.9829024345414588,-2.4253101046469006,4.902013635471874,2.578125
3.7801329904106797,-14.930829994578147,-0.9338018396616767,5.532685039166633,1.4908261891586012,-0.15281789060898515,-0.4505263736048488,7.399112100453692,-0.20909279767279812,-1.412437429116053,0.699971515748411,-1.3952790230700975,-2.997985265737814,3.5804021286777497,2.5859375
2.218689853358059,-12.687875694433293,2.7526408273601293,3.3852242809709336,3.518075922925972,0.7638637296657356,-4.12779778194852,5.428650916554264,-1.0043384573975367,1.6877867775733297,1.3514713855242122,-1.423570001693793,-2.867503735259987,1.0078169363620801,2.59375
1.0692258975944933,-7.449861481941371,3.243436791859776,1.4710971060504547,3.190166844148076,1.2767592763195243,-4.170982547428215,0.28428716764489614,-1.254186027409828,4.159062725176021,1.3078766730741722,-1.4737893159205733,-1.9086397468371732,0.25898128150535354,2.6015625
0.9748598965821526,-4.299453091232524,1.3691721135821149,1.0964650185790181,1.4903345296312924,0.6846967788274354,-1.9013042947724004,-1.6557156567049656,-0.5777404788318029,2.0223244260069255,0.6571256042842741,-1.0876621109187599,-1.092509404877492,2.320152409412253,2.609375
0.6449214613608597,-2.39982071988433,0.4464131069045557,0.7021264450044079,0.47509627667367205,-0.11661757695079406,-0.7232532194477534,-0.31186151297073195,0.14318985272093573,-1.3700198325899926,0.10500232054037065,-0.28974876576689834,-0.5324487897141248,3.225673374281251,2.6171875
-1.0799826001384794,3.2099090251657403,0.9142998393810553,-1.5066852348574815,-0.028089868250330167,-0.2792545155029137,-0.64469637805946,-0.451972918231742,0.30402351659109017,-1.6159904185787284,-0.21682901152111106,0.6811664567266585,0.6477870490960488,0.06731455940681716,2.625
-3.0411115144406438,10.310310837724806,1.3437985076930425,-4.162311939870364,-0.6482352741454701,-0.062227035781646504,-0.3978887422998603,-2.7783976290020096,0.19706615736338243,0.10448813029303158,-0.4656526542223171,1.4046513005211005,2.0784822820597575,-3.878674151930646,2.6328125
-3.3964871988633565,11.02767128601421,1.8899960856997764,-4.622636139766832,-0.39280707810742715,0.07410860557031734,-0.9038553049126382,-2.974960894980823,0.0728469268544706,0.6513502234791804,-0.387297598755552,1.4700881290960124,2.181322437342701,-4.687201655050155,2.640625
-2.2112185710490415,5.001025900261559,2.742680675812521,-2.858758040055423,0.9314581755707609,0.1680896900992234,-2.3847641308997227,-0.08468603748232706,-0.15567259431092148,0.2623026830212212,0.08636813743359692,0.9338386908724549,0.8783130874503683,-3.3119555150697737,2.6484375
-0.9710276176218265,0.993007623041867,1.9986303029864525,-1.157887464231248,1.0523791743692719,0.1618375395820976,-1.9941468548645096,1.0411496318201972,-0.20483543398810405,0.17919934063192078,0.23241174004913048,0.38784942618191354,0.08798228942818491,-1.8096234414555958,2.65625
-0.5837876066414895,3.6955823283254303,-0.999267844248153,-0.9101459476158468,-1.152630250664642,-0.2667120686720781,1.4107074053790771,-1.605229954832597,0.33957922185727013,-0.6429817168052584,-0.43378939572863723,0.4174464721328822,0.8520486796026332,-0.11992823410877522,2.6640625
-0.9449835337721859,7.252586635722065,-2.6733304147417765,-1.5329236617619766,-2.7738867572671166,-0.8762435940393456,3.5206252812187806,-2.720783473348044,0.9904131966381139,-2.7555528012162678,-1.083565479599997,0.9926442730138504,1.7563706834461585,0.8494766696679112,2.671875
-1.402143073147297,5.215235906674168,-0.39871456340851774,-1.7938047108542412,-1.1978570415072538,-0.9336263668878259,0.9593330465933508,1.2108608513019394,0.8582725749944274,-3.8894840295541413,-0.7366418327063452,1.4121376128666616,1.24537936540341,-0.5522296856554025,2.6796875
-0.8778613769266363,0.23494409426110524,1.3594927521540587,-0.7561562640024707,0.6613566460551107,-0.44449723576275746,-1.3580818518469306,4.467587168216796,0.21821616978701422,-2.3150490833462185,-0.03511818335750364,0.9501581645983314,0.0762336434246487,-2.1851710296520728,2.6875
1.210762669586538,-1.7865043463435804,-2.955790521092203,1.7492361923616997,-1.418847453703732,-0.18142587906500832,2.9517424806762915,1.0420918582099372,0.11402394501120883,0.4969048595167928,-0.26397231076890587,-0.34508526703023246,-0.1634451641072147,-0.4499585691408276,2.6953125
3.5936764766774636,-2.4082880726311955,-8.932000384499187,4.434651018004566,-4.7434432402519295,-0.21545305938281178,9.128464090618431,-4.187271030046247,0.38932998904487115,2.436116971002953,-0.8901217446011834,-1.6451973889812948,-3.447521036691499e-05,3.0410003279622493,2.703125
4.148604291753538,-6.992531034205105,-6.873834631589712,5.263367237792166,-2.863733599197224,0.1773700951105139,6.505849856434416,-2.680206954117881,-0.06059519810519167,3.0323354982478277,-0.2500389120855149,-2.1705930855910136,-1.120571848589722,3.8846732996224906,2.7109375
2.5651729263103977,-12.510134603778042,2.1330833004607017,3.6232050071588646,3.129068498199909,0.8394097257262184,-3.485903683272707,3.332458332961057,-0.9733152975034097,2.0687087305919745,1.2916665240538683,-1.7495099362056639,-2.8301653947393146,2.566752992932825,2.71875
0.5052256131425177,-10.182367591165749,6.899972612828241,0.9032431891859315,5.3941270206512995,0.6918403324440149,-8.264987157967731,4.585436435137389,-0.8674631275748164,-0.720840533113989,1.573845842970031,-0.6840449819236913,-2.5971660879791663,2.7658448347660864,2.7265625
-0.741928762422226,-0.9821881070049312,3.9029528960733892,-1.1626998190442692,2.158926614038954,-0.1845446402335936,-4.221813287798874,0.3112554800544492,0.1969023531176361,-3.2751834263210333,0.3383705762401187,0.38626979319585303,-0.42927601617615685,3.7052253425199955,2.734375
-1.054344432165736,3.8618965162485877,0.7070537254900338,-1.6262242531036402,-0.28785880943080894,-0.3452327097097848,-0.3778747579755732,-1.7142149782039657,0.434232645601772,-2.0100733528094885,-0.31885646703892123,0.6461585673772501,0.7871757763066966,1.298334691081957,2.7421875
-0.584040998762122,0.5709043405912829,0.9138553072561125,-0.561612829581326,0.6695711340534882,0.5633515021652604,-0.8904295869692885,0.618361914109429,-0.5900473510155905,2.862729167698326,0.33743065743624706,-0.058921204449591175,0.02030040317335713,-3.8703930110580878,2.75
0.019978866005742807,-1.749280771014404,0.4932813543659904,0.4306810841564289,0.9637992731612188,1.084391837267049,-0.6658161250137675,1.4079254218274304,-1.1506615802282252,5.770602262111279,0.6768205590308769,-0.648593352470758,-0.48653411337005936,-6.142933495649284,2.7578125
-0.46752814711521284,2.6559553015701516,-0.8829232735891832,-0.5727753477252214,-0.6988752616164301,0.34902051623863417,1.1948110292493952,-1.2100829415486651,-0.2944431151355903,2.637476681405983,-0.06860210486383127,-0.022938894885230425,0.5695261371129758,-3.186361543399406,2.765625
-1.8953477544103146,7.257191825392734,0.4228550220489822,-2.7421676942051993,-0.9651746989736251,-0.5901535017082292,0.26276923394906737,-2.029818204737129,0.6865118357676688,-2.712832380937559,-0.6412196852817226,1.2302101202420623,1.5473575071659145,0.1671908115123761,2.7734375
-2.362778559814161,5.8436289170606495,2.567080090598395,-3.133666043232685,0.47626114261605473,-0.5127594906815408,-2.1122002558611004,0.5293975909418284,0.4899044254670578,-3.1858861103283544,-0.29217449387597383,1.4936431706679847,1.1438173817275248,-0.9487115137874497,2.78125
-1.2796950937531706,2.3323614844032403,1.5964429520429122,-1.4842057667007227,0.7138516148415026,0.2612557901503061,-1.4293861272192578,1.064426294900111,-0.31113982135257723,1.1850891732105118,0.17365398831312973,0.49776270545797763,0.3890852450065626,-3.711354795517991,2.7890625
-0.43951263264225693,2.2112288012000665,-0.05504746560209057,-0.6912637174824589,-0.17281511841785754,0.502621052563833,0.25792463296468227,-2.4135273383345526,-0.3785936769458968,2.7319385034276937,0.09088999843751949,-0.23370565624652626,0.39012783332340684,-1.8009699430253765,2.796875
-0.6727178046849674,3.577289311893721,0.5975837916085527,-1.4083318050584408,-0.3595501928563662,-0.2828323616027625,-0.3250651616330659,-4.074131184899517,0.4961834235885661,-2.11250851358561,-0.3165450179808293,0.2778178219773265,0.691424518812153,3.90810417276138,2.8046875
-0.4260041581523226,2.1972827707449665,0.2672945525237844,-0.9090936964420112,-0.6195804494799609,-1.1581512979437871,-0.08157906351374103,-0.6780755856407541,1.1935903087990338,-6.3919812204278434,-0.6523769431713212,0.9226929250355085,0.5536312311277709,5.778032765963787,2.8125
0.9384458702540125,-1.122683036341225,-2.749599800880285,1.372913596724873,-1.6316261867384765,-0.8722552998332874,2.8101171797746245,2.2860514957277354,0.7397694578497956,-3.1234000220749203,-0.5935201130204564,0.30686886288035453,0.050797567557288814,1.587624016490311,2.8203125
1.7106359632519121,-2.764693661935104,-3.854464805478516,2.4731628891741315,-1.6328290720103351,0.21658806822126647,3.798041328788194,0.6359312574022894,-0.26551721871554174,2.968840420900477,-0.11408737415769234,-0.8529663236946051,-0.36063720643777736,-1.953945621145762,2.828125
1.1428678317588286,-2.127197128963184,-1.827847395754735,1.5124741562778565,-0.598904053448366,0.3747447684586864,1.7010716828474777,-0.8835573379748044,-0.3324088750584498,2.558915258536628,0.10256045713421198,-0.8190862274882583,-0.3891417095516769,-0.40962010251066044,2.8359375
0.9455684506600011,-2.0943584431470317,-1.6154003126758856,1.3060368042381083,-0.8426606022024746,-0.7031524970463747,1.505382102355533,1.8726633349546782,0.6014299865378591,-3.0353205833404053,-0.3596436594527363,0.13132767477823024,-0.24959949169035464,2.540554722600899,2.84375
1.942477658464054,-4.470550303318431,-3.4881532601824663,2.8058439076117456,-1.6658108797293558,-1.125601988369073,3.2686912459138706,4.148605862775124,0.8972046378858599,-4.330267827033686,-0.5895348062684332,0.08546621098199661,-0.5643388960845223,3.0864732923182707,2.8515625
2.2396867991007356,-6.514098115281417,-2.0647963491476644,3.0962284768754227,-0.25883723753116933,0.009299490628246872,1.5379114730234333,1.8159199091680016,-0.10189721597501432,0.4318050708931959,0.1647422175387553,-0.9855627216983841,-1.2332928361833153,1.8622135074988573,2.859375
0.4922200911347769,-4.25680942517335,2.315306658105076,0.6869758399832305,2.193276227884693,1.072437388676408,-2.8742671136606632,-0.38295265558346725,-1.0270831609156712,3.930424435626315,0.9490096946909957,-1.0497484039829634,-1.1604518105261226,-0.8876662794275474,2.8671875
-1.5647472005223868,0.7710226489457305,3.9730631967641767,-1.8110596548099862,2.4825002023041285,0.9967545996858395,-4.089698569145187,0.9356394425102079,-1.0215638949356907,3.707402284582386,0.8317834892522018,0.07854416893214124,-0.16447839956734478,-5.122004160098434,2.875
-1.8255305198029816,2.815699436218673,3.0131526341747574,-2.156798872531713,1.7009326357029813,1.0235619627323378,-2.8764162646819535,0.15746070115146837,-1.0180032188490324,4.573186717307626,0.6381639415930207,0.18448755724891022,0.316813650570514,-6.545468887750485,2.8828125
-0.9328003665265365,0.895069083238459,3.7440156024315048,-1.5629715549193817,2.4456791857380984,1.7195354392454276,-3.918213586224207,-5.282891953346826,-1.418779451108875,6.674367184457712,1.0676177646931333,-1.0629468956839423,-0.28757507518028197,-2.0855908200697777,2.890625
-0.5358159346202163,-0.02188617120951687,4.351937908551036,-1.415339193818125,2.7008441609734226,1.411918152333623,-4.688979162933664,-7.2288742412137275,-1.0022494796221677,4.08756536363617,0.9984882091764458,-1.200698358468029,-0.520677848850082,3.0563569869539853,2.8984375
-0.41343642956140925,1.9537077711909832,0.24843364252053324,-0.7870074081844141,-0.3780570871056393,-0.5891757675942849,-0.08420074282997843,-1.0018932742246967,0.6422473461626186,-3.302997775772818,-0.37275933935046,0.5299341117980527,0.4431229047843138,3.112609008332827,2.90625
0.13164819250575235,3.5687274639284507,-5.24671143201477,0.5206932240598877,-4.024065150766354,-2.2363133372386477,5.958107247060397,5.100306823033312,1.930963941657145,-8.041050276051898,-1.6900200936312608,1.8542388280344795,1.3806428766768668,0.8003755356572926,2.9140625
0.10924857890369151,3.744820083843902,-5.006270787670926,0.4113580344460996,-3.8177589972398276,-1.897749303203641,5.706695960244704,3.8040624805931054,1.661233329777911,-6.504768119384915,-1.5306286709087469,1.5641988037436514,1.3508533234149778,0.40772345339253474,2.921875
-0.9762346620071127,3.7448376787805944,-0.10335794474188255,-1.3355095530589942,-0.7652249501858327,-0.6254445859027541,0.48493115241136614,0.1363107532615668,0.6114080848708177,-2.7885577233690304,-0.49972568092830305,0.9210776095496866,0.8672830669240145,0.32253349465932246,2.9296875
-1.1783744781977223,1.7213398561896376,2.349857036181611,-1.541323058517822,1.0753246205623377,0.008489015305074022,-2.304737286400733,0.4365324649717508,-0.019407848207456193,-0.8642520865698285,0.1470233311695875,0.5469623414628578,0.22653626584759873,-0.6098387837648599,2.9375
0.45498032437611813,-2.899280244169362,0.6384275920767856,0.7474932001763492,0.7717377337408912,0.034576138708115906,-0.9482953217409014,1.866386105783263,-0.12123138502735761,-0.2802099607974836,0.25143816827461235,-0.17194720711757544,-0.6326975671045606,0.2885531531153156,2.9453125
1.4317734916930396,-4.060371053439698,-1.1265150710226721,1.8941636390260386,-0.0674892267996797,0.08060321354166652,0.7779453904637447,0.35757049615737846,-0.09561163795343457,0.447775232205503,0.1438072510869057,-0.7310046209860434,-0.797506151757694,1.7467133763747205,2.953125
0.16228497053752278,0.9722120750762545,-1.175165910462552,0.14862705819137687,-0.7328070502633571,0.15871217536781795,1.3222752053374822,-1.414158085424919,-0.09124247727662385,1.407976462254414,-0.104546411173324,-0.22612305187269532,0.24392597372628327,-0.6714590574334772,2.9609375
-0.8934212446764653,3.727583086829393,-0.6690276407233218,-1.0657019103569558,-0.7428379079664067,0.22814383936592852,1.0846178623177987,-0.568769102111358,-0.20820636367003942,2.1490581377518923,-0.15235523664742304,0.30464433041509087,0.8058421645181351,-3.998073621586228,2.96875
0.1664120822863824,-1.6803019734269091,0.8651017425732144,0.2916647752123818,0.904226217353202,0.5778439207982266,-1.0788865076499121,-0.042137774483987936,-0.5648039393405291,2.4607771175959035,0.445808662725217,-0.4912470580937046,-0.4680320250759834,-1.384111285292795,2.9765625
1.2361618796635714,-7.007286327291417,3.4757059816220326,1.2953263155282113,3.0961911497339556,1.0826824140332476,-4.412789371505802,-2.4213379867586933,-0.9165661429306646,2.49345729796507,1.1780829688093861,-1.596277152430429,-1.8505972311256125,4.34674136659833,2.984375
0.6073087965684065,-4.058499988164806,3.4755569318246744,0.28476002764181396,2.6521590500586845,1.021496156402132,-4.137836140158833,-4.331299704105071,-0.7605412625712357,2.269882545386612,0.9720460970947443,-1.3417634612920044,-1.2450907213638696,4.590393639290573,2.9921875
0.08051325677261212,1.5447303509955932,-1.1476214376539124,-0.048501271963157754,-0.8317058025565707,0.10630422579317086,1.3445163479817837,-2.1252315148424357,-0.0017755252810993936,1.053200120097239,-0.16632214076694882,-0.19185239662612277,0.3585727405173717,0.028719937072720643,3.0
0.798190999980756,2.066787339647151,-5.52831631620398,1.3084774960145917,-3.54525729167523,-0.8911909468269449,6.069731197204663,1.766288399902375,0.7622767162687322,-1.2754581128008273,-1.0383096123967037,0.4576796511023983,0.897625772349977,-1.8418004237434036,3.0078125
0.87415139508267,0.26513387213653816,-4.356265656112496,1.460630669812764,-2.700188648902615,-1.0178691994453932,4.66094397824931,3.182478808774144,0.8247674074131633,-2.644976980769727,-0.8756310852391387,0.5412539700519486,0.47434688514433127,-0.6873645827846842,3.015625
-0.44345414311136205,0.4824983248610402,0.11208489141951677,-0.3127317654981176,-0.04919502779279538,-0.33513330723394535,-0.0377116336235417,2.795948237043188,0.1889799805384493,-1.3092733522076383,-0.1367840115604661,0.6025206866884447,0.17078443438283,-1.7341526408839691,3.0234375
-1.046657740887339,0.21445496953215376,2.2262756385717557,-1.0176067923522514,1.3817553594975447,0.2887219186496543,-2.2882705212848835,2.899125963390462,-0.4268317753251481,0.9948826763430145,0.379904524245034,0.4425239174510463,-0.07668467639334002,-3.9773742884512537,3.03125
-0.07634892083140897,-1.9078547019324545,1.2835672979507806,0.14464064930814358,1.1319362037605603,0.3585578296500048,-1.5211121500413738,1.9664767932724987,-0.4486820660076076,1.3609285033232876,0.4191974998369722,-0.1239259110527183,-0.4912214113349031,-2.098447703774852,3.0390625
0.6958000167574481,-2.088468797325165,0.13693539179016925,0.7383041524440086,0.3236187255656714,0.07233792544899219,-0.3768759258025416,-1.1002213157645406,-0.007269393338627143,-0.240078089052496,0.1401369723064604,-0.47235232503925184,-0.4770028886940678,2.6538145285955297,3.046875
0.39529430854074593,0.4458085313228069,-0.7163460371883734,0.17842411556276377,-0.646854687578802,-0.3241937551158704,0.7619576678059072,-2.340950577511705,0.4444246013958758,-1.8065087772329675,-0.2782365982762742,-0.10186754788801813,0.1358518818180229,3.8526420965129624,3.0546875
-0.06675220753549659,2.1582974610694996,-1.8391234307515678,-0.096095412485987,-1.514974840490787,-0.6530787768654552,2.160584601533328,0.29411468473026015,0.6242731701293631,-2.2307864448592594,-0.5959153964157944,0.5387524375439723,0.6423192512373874,0.5810192368318952,3.0625
-0.6089353659087852,2.535282595465272,-0.9433445168565183,-0.615348312079256,-0.9656577911964568,-0.48200365748281837,1.2767321929731625,1.6742163468000697,0.38509637828736537,-1.4326631243818122,-0.4289373497926978,0.7554438454438243,0.671288508390559,-1.8183124769565733,3.0703125
-1.7984172342689486,3.2538488786231095,3.540701030926975,-2.4953879933704934,1.60168389500657,0.3179253816704156,-3.419709217817654,-1.2416931726557874,-0.23566280694414743,0.1396449497254827,0.3080961245384493,0.5294648477989964,0.42415546773763607,-0.9267741376999326,3.078125
-2.58946547970509,3.0613031863297278,7.255149082263266,-3.781011479535708,3.8113928711271163,0.9168408355055724,-7.384618239687798,-3.2464897145224816,-0.7060301611084703,1.0338216507346758,0.9336715076131454,0.3068764904419186,0.06389182673916377,0.32103582333249037,3.0859375
-1.519944142334809,1.1505347317684262,4.7050624680359485,-2.1766775443922466,2.562541030259318,0.5050099559453785,-4.859418235710153,-1.2485884066311121,-0.41070803920814364,0.19284551806999606,0.6163393417960622,0.22411344376987957,-0.11472257690760479,0.3765152099771195,3.09375
0.5662881402507939,-0.06483595671919257,-1.7743945452149812,0.707358296737499,-1.0875184541519451,-0.3166628449261213,1.8673627905229448,-0.19710717008982295,0.3190030194352718,-0.8606779219119363,-0.3214025214187584,-0.0362866343189071,0.12460249896648816,1.0817464884670547,3.1015625
1.6449571233530567,-0.5290828973951276,-4.471624629235861,1.9728939848382165,-2.537965201935221,-0.2965750891818451,4.635650501579952,-2.181534099360519,0.3878814001572749,0.2600418717298392,-0.5718545590060992,-0.6263079673082971,0.1614395426039202,2.1541771847583733,3.109375
1.4741287337392466,-2.9230959898759856,-1.8320887749100332,1.831502851910603,-0.4813500436752834,0.5096281425240234,1.6083304164098913,-1.9023163342572422,-0.41259933125710546,2.9803170793840774,0.19453594885007083,-1.1357123157687614,-0.5868302210692983,0.6704881332465312,3.1171875
1.3056172802471675,-5.454731859311377,-0.3123977567145646,2.051482798946711,0.8807437616277296,0.78176896836497,-0.1993466267243921,1.9883372179429306,-0.8756980689378789,4.009232528334909,0.6522829216921909,-1.0551467457172188,-1.1885198129697077,-2.5878625318294612,3.125
1.47119507836167,-3.7681665972998366,-3.0767853994572234,2.4338839693378134,-1.0914856923373686,-0.02474652770575017,2.912932336586657,3.7775298436047042,-0.1836578365276459,1.6442332440350493,-0.061950665986985044,-0.42026751080840824,-0.5520715017318463,-3.0603619751439357,3.1328125
1.1709075509826745,0.19299884587634564,-4.783602024419643,1.705305424392516,-2.9021010448183766,-0.8455994708180691,5.082698102513936,1.5521445380845573,0.7364237099014255,-1.7823666982573156,-0.8521471972437636,0.1984552108564208,0.44410975158111854,0.0834623319844548,3.140625
0.26393071078952496,1.1018832270142214,-1.4733101981582803,0.1751016502346294,-1.2062964755879586,-0.6182646517817403,1.6494971227613369,-0.7324389327427498,0.6482728961167766,-2.6147275378140113,-0.5038986994432897,0.2746007162267034,0.3754245538139401,2.659331907699317,3.1484375
-0.33544950564885684,-0.43788895068314165,2.223938971010343,-0.6558931622557127,1.2793906822725367,0.1655139454295293,-2.410605528140391,-1.2669059269552074,-0.08156861013468,-0.6178611569820369,0.29735997264850866,-0.08209336784438168,-0.26651202475093805,2.1887103365877394,3.15625
-0.19089064461381325,-0.6625101664948931,1.4777679971656539,-0.3082867286371355,0.9744994440176672,0.27495405320172095,-1.6306196033116038,-0.450135335651423,-0.2385105674412753,0.5227176157285502,0.30110087610089514,-0.1555488194739341,-0.2661581581969707,0.35333737250664443,3.1640625
-0.009315624550087803,-0.08240048933541229,-0.6955716402363868,0.21467281594094492,-0.4517741560320769,-0.3938588862066618,0.756707019612933,2.4164310101746174,0.2644749238102347,-1.3685734905799243,-0.21882792478618318,0.4225819598212276,0.10055703565724075,-0.9536458929574484,3.171875
-0.2941894499415326,-0.23955551055659854,-0.33532342055814907,0.0446119175262936,-0.3133057061284959,-0.773815108340344,0.39127293793425744,4.985606105333707,0.5116272783231209,-3.211247368758711,-0.32436917880987703,0.9502509864212951,0.12014253861513309,-1.510173647214926,3.1796875
-0.6268341892951309,0.9259912427998177,0.3974511450277976,-0.5771026349638891,0.03176090739365977,-0.36611297567634415,-0.28894939896493593,2.6607494149069284,0.22852977437456976,-1.5932337595027946,-0.14956913143527145,0.6998169773151238,0.24861958239080953,-1.588849889190525,3.1875
-0.9653015233008196,4.116824640804521,-0.04060723140743267,-1.4015040857829588,-0.5396248091444337,0.14109592872332552,0.4399950596542641,-2.1859657910002315,-0.032980222916113265,1.067146248605158,-0.1760311669346949,0.28384233264699815,0.8339176606049704,-1.5403842368968326,3.1953125
-1.9245655731018356,5.556183175314979,2.286539900414123,-2.7893164148006817,0.5784492376547358,0.29870746258680675,-1.8848985628932362,-3.0697543601965576,-0.13323119291493662,0.747735125094669,0.03696819908674796,0.5456331671007162,0.9673131824097791,-1.219337876506834,3.203125
-2.7553545043320886,3.1627896609875634,7.283987040000344,-3.8846112224949234,3.7381663957932356,0.6074770273209205,-7.390845602811908,-1.695988487827872,-0.47868393043127233,-0.3877231163816236,0.8038195198994043,0.6804982320720536,0.13704912551641277,0.17445357225556665,3.2109375
-1.4133852131671623,-0.5003382102558315,6.745676163675139,-2.280526268711297,4.061766789439026,1.1583143456898664,-7.217373452737262,-3.5726752427448494,-0.9256892938692157,1.9995743699227237,1.1787928012018936,-0.45705669659002623,-0.6918733712772831,1.9126293874937903,3.21875
1.7601558802738204,-3.1056574839496878,-1.6196045235282057,1.9286802319566616,-0.24184240409273347,1.0088619892838613,1.3318836857129637,-5.082589393902775,-0.7420913631951063,4.996979158019289,0.420401213958317,-1.7952982115313498,-0.7351854591175038,1.8764627704474428,3.2265625
3.224136891750527,-4.071574581696531,-7.309627049636561,4.309198668494189,-3.512380051310154,-0.10681580890531599,7.291502775615653,-0.7170479296246253,0.11068848280444464,2.562866133092305,-0.5510507110716913,-1.3823603058556926,-0.4134585326874085,0.5673756389396867,3.234375
1.3036299350683442,-2.3307151306421536,-3.4096975789954382,2.0213580755957556,-1.8023586861153438,-0.8890831729396914,3.4014478773330756,3.6952770199376785,0.6806333350215411,-2.780091542976507,-0.5838346951012978,0.2328629033088162,-0.14281392792928013,0.6028361212142747,3.2421875
-0.9535342775877315,1.2328357170042414,2.0261723105550105,-1.277624206834142,0.778072409439379,-0.4952455842604451,-2.0036954970410457,1.2445745672745934,0.4417803370109891,-3.4288801637741106,-0.0905318637185345,0.814934594723101,0.203645752188298,1.5063901023113184,3.25
-0.5738494890716226,2.2457612063851577,0.6082128516377646,-0.9794997679153915,0.0042599277154511585,0.047025598591033696,-0.44037825369574934,-2.1418728746844695,0.0671472001347377,-0.1179181600842121,-0.06286999765827027,0.12315415635963389,0.40429111125886574,0.817796852731117,3.2578125
0.9037617143756245,-0.6929939288442412,-2.8331589643832626,1.3160147149551489,-1.5117499531005223,-0.21877402109830402,2.92969078186405,0.7105391419002594,0.1677617315956777,0.3408832132398439,-0.33059319529997516,-0.18550990616942442,0.06063634582709045,-0.6538301376884692,3.265625
0.8992958228195792,-3.0093064402037935,-1.7900022607240855,1.6237675994096665,-0.6650267117826262,-0.5170423401382906,1.6385509237455689,4.617514972345354,0.2713485953239921,-1.5192772339877432,-0.2030486480232555,0.19724719726852158,-0.4102282345579349,-1.1336226340916036,3.2734375
0.43994891067944397,-2.160933869321415,-0.6743579046257674,0.9355542405124129,-0.051585778280986115,-0.13408906745720597,0.5338185480936121,3.3324790164399145,-0.03913699025628392,-0.09725698708004424,0.026944452574749676,0.0743965751044348,-0.3550740261203485,-1.8321332084681594,3.28125
1.3957030956903824,-1.3376955185591695,-4.25355142082338,2.094705914209402,-2.0995896449942584,0.009067840661568806,4.370958640856749,0.961897008005943,-0.0810828305571328,2.331606296369507,-0.3203422610475855,-0.5234117033524862,-0.006404489945525211,-2.5391226779711396,3.2890625
1.9063882449395881,-1.4507207455280802,-5.782497030786527,2.699647577710661,-3.1563358601525713,-0.6191719197110084,5.972457038784435,1.2879757488852168,0.5213868575656615,-0.2999076221159285,-0.758356874585114,-0.30865454216024835,0.1302444733153235,-0.135995310434982,3.296875
-0.5643318860743961,0.883128273649904,1.525801957655914,-0.9252003659602798,0.47590482987880195,-0.5909188792042769,-1.5279102696218148,0.08621362581301238,0.5965552850079109,-3.9771278727136856,-0.1821482163733078,0.6269578890374242,0.1520942955147776,3.42269551846018,3.3046875
-3.5946297723332794,4.268007574358089,10.008566005038725,-5.2635482574516335,5.11531347691473,0.8752006927872524,-10.180427749654305,-3.8016805378400766,-0.6206280145224494,-0.6092135307244818,1.1074856406504978,0.7258971995909943,0.1454798800288158,1.818636400277333,3.3125
-2.726172666388177,2.7585348767803706,7.900102550836772,-3.8686580077332406,4.535126535646465,1.817462109924956,-8.099160684140598,-4.151268176415662,-1.5548134275381644,5.485052677624101,1.4312499186594223,-0.2797694855376426,-0.14140420517736918,-3.1105752281364363,3.3203125
